File: 2h_200mAcm2_cleanNaOH _j_100-20mAcm2_2025-10-28_12_LSV_C01_noheader.txt
mode	ox/red	error	control changes	time/s	control/V	Ewe/V	<I>/mA	(Q-Qo)/C	I Range	P/W
2	0	0	0	579.037	-1.25984	-1.26505	-391.233	-0.0021909	37	0.494927
2	0	0	1	579.055	-1.25801	-1.2603	-564.867	-0.012681	37	0.711899
2	0	0	1	579.089	-1.25467	-1.25585	-518.017	-0.0306987	37	0.65055
2	0	0	1	579.122	-1.25135	-1.25238	-486.41	-0.0473328	37	0.609169
2	0	0	1	579.155	-1.24801	-1.24807	-460.28	-0.0631098	37	0.57446
2	0	0	1	579.189	-1.24467	-1.24516	-437.311	-0.0780709	37	0.544522
2	0	0	1	579.222	-1.24135	-1.24257	-416.569	-0.0922188	37	0.517614
2	0	0	1	579.255	-1.23801	-1.2391	-397.28	-0.105785	37	0.492268
2	0	0	1	579.289	-1.23467	-1.23419	-379.149	-0.118728	37	0.467941
2	0	0	1	579.322	-1.23135	-1.23392	-362.19	-0.131011	37	0.446913
2	0	0	1	579.355	-1.22801	-1.22853	-345.933	-0.142814	37	0.424988
2	0	0	1	579.389	-1.22467	-1.2246	-330.364	-0.154086	37	0.404562
2	0	0	1	579.422	-1.22135	-1.22073	-315.469	-0.164787	37	0.385102
2	0	0	1	579.455	-1.21801	-1.2202	-301.038	-0.175062	37	0.367325
2	0	0	1	579.489	-1.21466	-1.21635	-287.358	-0.184868	37	0.349529
2	0	0	1	579.522	-1.21134	-1.21201	-274.259	-0.194171	37	0.332404
2	0	0	1	579.555	-1.208	-1.20859	-261.71	-0.203103	37	0.316301
2	0	0	1	579.589	-1.20466	-1.20475	-249.703	-0.211625	37	0.30083
2	0	0	1	579.622	-1.20133	-1.20169	-238.258	-0.219756	37	0.286314
2	0	0	1	579.655	-1.19801	-1.1995	-227.331	-0.227467	37	0.272684
2	0	0	1	579.689	-1.19467	-1.19376	-216.886	-0.234868	37	0.258909
2	0	0	1	579.722	-1.19133	-1.19146	-206.888	-0.241928	37	0.246498
2	0	0	1	579.755	-1.18801	-1.18746	-197.317	-0.248622	37	0.234306
2	0	0	1	579.789	-1.18467	-1.18498	-188.176	-0.255044	37	0.222985
2	0	0	1	579.822	-1.18133	-1.18323	-179.432	-0.261169	37	0.212309
2	0	0	1	579.855	-1.17801	-1.17954	-171.15	-0.266973	37	0.201879
2	0	0	1	579.889	-1.17467	-1.17481	-162.973	-0.272537	37	0.191462
2	0	0	1	579.922	-1.17133	-1.17173	-155.163	-0.277836	37	0.18181
2	0	0	1	579.955	-1.16801	-1.16764	-147.653	-0.282848	37	0.172405
2	0	0	1	579.989	-1.16467	-1.16499	-140.399	-0.287644	37	0.163563
2	0	0	1	580.022	-1.16132	-1.16211	-133.336	-0.292202	37	0.154951
2	0	0	1	580.055	-1.158	-1.15888	-126.54	-0.296502	37	0.146645
2	0	0	1	580.089	-1.15466	-1.15603	-119.868	-0.300604	37	0.13857
2	0	0	1	580.122	-1.15132	-1.15294	-113.316	-0.304485	37	0.130647
2	0	0	1	580.155	-1.148	-1.14941	-107.014	-0.308139	37	0.123003
2	0	0	1	580.189	-1.14467	-1.14552	-100.824	-0.311587	37	0.115496
2	0	0	1	580.222	-1.14133	-1.14205	-94.746	-0.31484	37	0.108204
2	0	0	1	580.255	-1.13799	-1.13786	-88.7258	-0.317891	37	0.100957
2	0	0	1	580.289	-1.13467	-1.13612	-82.9242	-0.320727	37	0.0942119
2	0	0	1	580.322	-1.13133	-1.13297	-77.1815	-0.323388	37	0.0874447
2	0	0	1	580.355	-1.12799	-1.12874	-71.5364	-0.325859	37	0.0807459
2	0	0	1	580.389	-1.12467	-1.12523	-65.992	-0.328128	37	0.0742564
2	0	0	1	580.422	-1.12133	-1.12277	-60.3991	-0.330226	37	0.0678143
2	0	0	1	580.455	-1.11799	-1.11799	-54.9247	-0.332139	37	0.0614056
2	0	0	1	580.489	-1.11467	-1.11577	-49.4951	-0.333861	37	0.0552251
2	0	0	1	580.537	-1.10982	-1.11033	-41.6041	-0.336042	37	0.0461943
2	0	0	1	580.585	-1.10498	-1.10596	-33.8931	-0.337953	38	0.0374844
2	0	0	1	580.619	-1.10166	-1.1032	-28.6212	-0.338979	38	0.0315749
2	0	0	1	580.652	-1.09832	-1.09863	-23.346	-0.339834	38	0.0256486
2	0	0	1	580.685	-1.09498	-1.09606	-18.0777	-0.340513	38	0.0198141
2	0	0	1	580.719	-1.09166	-1.09262	-12.847	-0.341015	38	0.014037
2	0	0	1	580.752	-1.08833	-1.08937	-7.68937	-0.341345	38	0.00837656
2	0	0	1	580.785	-1.08499	-1.0857	-2.45566	-0.341502	38	0.0026661
2	1	0	1	580.819	-1.08165	-1.08349	2.75999	-0.341485	38	-0.00299044
2	1	0	1	580.852	-1.07833	-1.07859	7.91434	-0.341295	38	-0.00853629
2	1	0	1	580.885	-1.07499	-1.07474	13.1137	-0.340931	38	-0.0140939
2	1	0	1	580.919	-1.07165	-1.07142	18.3124	-0.340394	38	-0.0196203
2	1	0	1	580.952	-1.06833	-1.069	23.5237	-0.339687	38	-0.0251468
2	1	0	1	580.985	-1.06499	-1.06659	28.7296	-0.338801	38	-0.0306427
2	1	0	1	581.019	-1.06165	-1.0635	33.9133	-0.337742	38	-0.0360666
2	1	0	1	581.052	-1.05833	-1.05775	39.0465	-0.336518	38	-0.0413014
2	1	0	1	581.085	-1.05499	-1.05497	44.2192	-0.335115	38	-0.04665
2	1	0	1	581.119	-1.05164	-1.05338	49.4612	-0.333538	38	-0.0521013
2	1	0	1	581.152	-1.04832	-1.04849	54.7049	-0.331796	38	-0.0573577
2	1	0	1	581.185	-1.04498	-1.04648	59.8655	-0.32987	38	-0.062648
2	1	0	1	581.219	-1.04164	-1.04188	65.134	-0.32777	38	-0.0678616
2	1	0	1	581.252	-1.03832	-1.03909	70.4068	-0.3255	38	-0.0731588
2	1	0	1	581.285	-1.03499	-1.03471	75.7286	-0.323055	38	-0.078357
2	1	0	1	581.319	-1.03165	-1.03253	80.9944	-0.320425	38	-0.0836291
2	1	0	1	581.352	-1.02831	-1.02873	86.4986	-0.317616	38	-0.0889834
2	1	0	1	581.385	-1.02499	-1.02601	92.1751	-0.314636	38	-0.0945723
2	1	0	1	581.419	-1.02165	-1.02051	98.0099	-0.311447	38	-0.10002
2	1	0	1	581.452	-1.01831	-1.01899	103.83	-0.308064	38	-0.105802
2	1	0	1	581.5	-1.01349	-1.01326	112.096	-0.302819	38	-0.113582
2	1	0	1	581.549	-1.00865	-1.01009	119.866	-0.297276	37	-0.121076
2	1	0	1	581.582	-1.00531	-1.00479	124.997	-0.293173	37	-0.125595
2	1	0	1	581.615	-1.00199	-1.00228	129.464	-0.288936	37	-0.129759
2	1	0	1	581.649	-0.998645	-0.999512	133.291	-0.284536	37	-0.133226
2	1	0	1	581.682	-0.995305	-0.995236	132.991	-0.280073	37	-0.132357
2	1	0	1	581.715	-0.991984	-0.992254	138.254	-0.275571	37	-0.137183
2	1	0	1	581.749	-0.988644	-0.989016	151.622	-0.270708	37	-0.149957
2	1	0	1	581.782	-0.985304	-0.984801	161.122	-0.265466	37	-0.158673
2	1	0	1	581.815	-0.981976	-0.983675	168.729	-0.259958	37	-0.165974
2	1	0	1	581.849	-0.978649	-0.977827	175.77	-0.254207	37	-0.171873
2	1	0	1	581.882	-0.975309	-0.976208	182.663	-0.248206	37	-0.178317
2	1	0	1	581.916	-0.971969	-0.970812	189.833	-0.24197	37	-0.184292
2	1	0	1	581.949	-0.968648	-0.967591	197.13	-0.235532	37	-0.190742
2	1	0	1	581.982	-0.965308	-0.965194	204.487	-0.228809	37	-0.19737
2	1	0	1	582.016	-0.961967	-0.961151	211.783	-0.221842	37	-0.203555
2	1	0	1	582.049	-0.958647	-0.958894	218.897	-0.214678	37	-0.209899
2	1	0	1	582.082	-0.955307	-0.955688	225.804	-0.207237	37	-0.215798
2	1	0	1	582.116	-0.951966	-0.953436	232.503	-0.199568	37	-0.221677
2	1	0	1	582.134	-0.950139	-0.944889	236.423	-0.195317	37	-0.223394