File: 2h_200mAcm2_cleanNaOH _j_100-20mAcm2_2025-10-28_04_LSV_C01_noheader.txt
mode	ox/red	error	control changes	time/s	control/V	Ewe/V	<I>/mA	(Q-Qo)/C	I Range	P/W
2	0	0	0	111.49	-1.25984	-1.26064	-270.762	-0.00151627	37	0.341334
2	0	0	1	111.509	-1.25801	-1.25889	-293.194	-0.00695027	37	0.369099
2	0	0	1	111.542	-1.25467	-1.25435	-271.651	-0.0163477	37	0.340745
2	0	0	1	111.575	-1.25135	-1.25193	-257.925	-0.0251155	37	0.322903
2	0	0	1	111.609	-1.24801	-1.24749	-247.332	-0.0335341	37	0.308543
2	0	0	1	111.642	-1.24467	-1.24539	-238.592	-0.041632	37	0.29714
2	0	0	1	111.675	-1.24135	-1.24363	-230.861	-0.0494088	37	0.287106
2	0	0	1	111.709	-1.23801	-1.23981	-223.711	-0.0569855	37	0.277359
2	0	0	1	111.742	-1.23467	-1.23573	-217.234	-0.0643352	37	0.268442
2	0	0	1	111.775	-1.23135	-1.23122	-211.084	-0.0714317	37	0.25989
2	0	0	1	111.809	-1.22801	-1.22867	-205.34	-0.0783724	37	0.252296
2	0	0	1	111.842	-1.22467	-1.2262	-199.706	-0.0851237	37	0.244879
2	0	0	1	111.875	-1.22135	-1.22247	-194.203	-0.0916493	37	0.237407
2	0	0	1	111.909	-1.21801	-1.21811	-188.605	-0.0980283	37	0.229741
2	0	0	1	111.942	-1.21466	-1.21462	-183.383	-0.104228	37	0.222741
2	0	0	1	111.975	-1.21134	-1.21304	-178.265	-0.110218	37	0.216243
2	0	0	1	112.009	-1.208	-1.20707	-172.994	-0.116071	37	0.208817
2	0	0	1	112.042	-1.20466	-1.20592	-167.93	-0.121752	37	0.202511
2	0	0	1	112.075	-1.20133	-1.20202	-162.899	-0.127263	37	0.195807
2	0	0	1	112.109	-1.19801	-1.19924	-157.86	-0.132575	37	0.189313
2	0	0	1	112.142	-1.19467	-1.19618	-152.721	-0.137749	37	0.182682
2	0	0	1	112.175	-1.19133	-1.19227	-147.754	-0.142754	37	0.176164
2	0	0	1	112.209	-1.18801	-1.18816	-142.862	-0.147566	37	0.169743
2	0	0	1	112.242	-1.18467	-1.18433	-137.861	-0.152241	37	0.163274
2	0	0	1	112.275	-1.18133	-1.18151	-132.996	-0.156751	37	0.157135
2	0	0	1	112.309	-1.17801	-1.17922	-128.155	-0.161073	37	0.151123
2	0	0	1	112.342	-1.17467	-1.17523	-123.361	-0.165261	37	0.144979
2	0	0	1	112.375	-1.17133	-1.17207	-118.494	-0.169287	37	0.138883
2	0	0	1	112.409	-1.16801	-1.16818	-113.775	-0.17313	37	0.132909
2	0	0	1	112.442	-1.16467	-1.16558	-108.9	-0.176835	37	0.126931
2	0	0	1	112.475	-1.16132	-1.16031	-104.101	-0.18038	37	0.120789
2	0	0	1	112.509	-1.158	-1.1571	-99.2598	-0.183743	37	0.114854
2	0	0	1	112.542	-1.15466	-1.15695	-94.5168	-0.186967	37	0.109351
2	0	0	1	112.575	-1.15132	-1.15146	-89.7603	-0.190031	37	0.103355
2	0	0	1	112.609	-1.148	-1.1477	-85.0097	-0.192929	37	0.0975653
2	0	0	1	112.642	-1.14467	-1.14561	-80.3263	-0.195669	37	0.0920227
2	0	0	1	112.675	-1.14133	-1.14188	-75.6971	-0.198262	37	0.0864372
2	0	0	1	112.709	-1.13799	-1.13805	-71.0015	-0.200699	37	0.0808031
2	0	0	1	112.742	-1.13467	-1.13494	-66.31	-0.202966	37	0.0752575
2	0	0	1	112.775	-1.13133	-1.13265	-61.6332	-0.205089	37	0.069809
2	0	0	1	112.809	-1.12799	-1.12899	-56.9417	-0.207056	37	0.0642863
2	0	0	1	112.842	-1.12467	-1.12451	-52.2803	-0.208856	37	0.05879
2	0	0	1	112.875	-1.12133	-1.1209	-47.5764	-0.21051	37	0.0533283
2	0	0	1	112.909	-1.11799	-1.11898	-42.9328	-0.212009	37	0.0480409
2	0	0	1	112.942	-1.11467	-1.11571	-38.2771	-0.213344	37	0.0427062
2	0	0	1	112.99	-1.10982	-1.10976	-31.5399	-0.215009	37	0.0350018
2	0	0	1	113.039	-1.10498	-1.10625	-24.6104	-0.21644	38	0.0272254
2	0	0	1	113.072	-1.10166	-1.10209	-19.9006	-0.217166	38	0.0219322
2	0	0	1	113.105	-1.09832	-1.09838	-15.1604	-0.21774	38	0.0166518
2	0	0	1	113.139	-1.09498	-1.09562	-10.4084	-0.218155	38	0.0114037
2	0	0	1	113.172	-1.09166	-1.09301	-5.68364	-0.218411	38	0.00621228
2	0	0	1	113.205	-1.08833	-1.08967	-0.941162	-0.218509	38	0.00102556
2	1	0	1	113.239	-1.08499	-1.08457	3.85786	-0.218448	38	-0.0041841
2	1	0	1	113.272	-1.08165	-1.08308	8.69715	-0.218226	38	-0.00941975
2	1	0	1	113.305	-1.07833	-1.07901	13.5304	-0.217845	38	-0.0145994
2	1	0	1	113.339	-1.07499	-1.07392	18.4185	-0.217299	38	-0.0197801
2	1	0	1	113.372	-1.07165	-1.07209	23.3781	-0.216589	38	-0.0250635
2	1	0	1	113.405	-1.06833	-1.07017	28.3383	-0.215718	38	-0.0303267
2	1	0	1	113.439	-1.06499	-1.06576	33.3387	-0.214676	38	-0.0355311
2	1	0	1	113.472	-1.06165	-1.06173	38.3142	-0.213467	38	-0.0406792
2	1	0	1	113.505	-1.05833	-1.05867	43.2565	-0.212101	38	-0.0457942
2	1	0	1	113.539	-1.05499	-1.05754	48.187	-0.210561	38	-0.0509595
2	1	0	1	113.572	-1.05164	-1.05273	53.1914	-0.208856	38	-0.0559959
2	1	0	1	113.605	-1.04832	-1.05021	58.2168	-0.206994	38	-0.06114
2	1	0	1	113.639	-1.04498	-1.04488	63.2509	-0.204953	38	-0.0660893
2	1	0	1	113.672	-1.04164	-1.04065	68.6207	-0.202739	38	-0.0714099
2	1	0	1	113.705	-1.03832	-1.03849	74.3059	-0.200346	38	-0.0771658
2	1	0	1	113.739	-1.03499	-1.03735	79.8334	-0.197767	38	-0.0828151
2	1	0	1	113.772	-1.03165	-1.03026	85.2113	-0.194998	38	-0.0877898
2	1	0	1	113.806	-1.02831	-1.02854	90.5755	-0.192049	38	-0.0931604
2	1	0	1	113.839	-1.02499	-1.02524	96.0313	-0.188939	38	-0.098455
2	1	0	1	113.872	-1.02165	-1.021	101.652	-0.185625	38	-0.103787
2	1	0	1	113.921	-1.01681	-1.01535	109.746	-0.180463	38	-0.111431
2	1	0	1	113.969	-1.01199	-1.01303	117.676	-0.175049	37	-0.119209
2	1	0	1	114.002	-1.00865	-1.00921	122.618	-0.171023	37	-0.123747
2	1	0	1	114.036	-1.00531	-1.00605	126.802	-0.166847	37	-0.127569
2	1	0	1	114.069	-1.00199	-1.00095	130.531	-0.162564	37	-0.130656
2	1	0	1	114.102	-0.998645	-0.997025	127.571	-0.158238	37	-0.127191
2	1	0	1	114.136	-0.995305	-0.996897	140.297	-0.15375	37	-0.139862
2	1	0	1	114.169	-0.991984	-0.992765	149.831	-0.148915	37	-0.148747
2	1	0	1	114.202	-0.988644	-0.988143	156.794	-0.14378	37	-0.154934
2	1	0	1	114.236	-0.985304	-0.985303	163.347	-0.13842	37	-0.160947
2	1	0	1	114.269	-0.981976	-0.982368	169.909	-0.132857	37	-0.166913
2	1	0	1	114.302	-0.978649	-0.981135	176.789	-0.127071	37	-0.173454
2	1	0	1	114.336	-0.975309	-0.975786	183.946	-0.121032	37	-0.179492
2	1	0	1	114.369	-0.971969	-0.972467	191.093	-0.114756	37	-0.185832
2	1	0	1	114.402	-0.968648	-0.968711	198.356	-0.108276	37	-0.192149
2	1	0	1	114.436	-0.965308	-0.96633	205.792	-0.101513	37	-0.198863
2	1	0	1	114.469	-0.961967	-0.9627	213.325	-0.0944993	37	-0.205368
2	1	0	1	114.502	-0.958647	-0.959611	220.811	-0.0872785	37	-0.211892
2	1	0	1	114.536	-0.955307	-0.957072	228.385	-0.0797628	37	-0.218581
2	1	0	1	114.569	-0.951966	-0.9541	235.917	-0.0719949	37	-0.225088
2	1	0	1	114.587	-0.950139	-0.943709	239.865	-0.0676815	37	-0.226362