File: 2h_200mAcm2_cleanNaOH_all _j_2025-10-28b_08_LSV_C01_noheader.txt
mode	ox/red	error	control changes	time/s	control/V	Ewe/V	<I>/mA	(Q-Qo)/C	I Range	P/W
2	0	0	0	437.88	-1.25984	-1.25538	-426.508	-0.00238845	37	0.535431
2	0	0	1	437.899	-1.25801	-1.25953	-646.96	-0.0143622	37	0.814865
2	0	0	1	437.932	-1.25467	-1.25665	-620.532	-0.0354827	37	0.779791
2	0	0	1	437.965	-1.25135	-1.25172	-602.218	-0.0557549	37	0.75381
2	0	0	1	437.999	-1.24801	-1.24791	-584.342	-0.0755463	37	0.729209
2	0	0	1	438.032	-1.24467	-1.24501	-567.039	-0.0947501	37	0.705967
2	0	0	1	438.065	-1.24135	-1.24318	-549.834	-0.113267	37	0.683544
2	0	0	1	438.099	-1.23801	-1.23839	-532.996	-0.131327	37	0.660058
2	0	0	1	438.132	-1.23467	-1.23644	-516.589	-0.148832	37	0.63873
2	0	0	1	438.165	-1.23135	-1.23084	-500.752	-0.165698	37	0.616346
2	0	0	1	438.199	-1.22801	-1.22705	-485.413	-0.182145	37	0.595624
2	0	0	1	438.232	-1.22467	-1.22451	-470.238	-0.198082	37	0.575809
2	0	0	1	438.265	-1.22135	-1.22186	-455.931	-0.213435	37	0.557082
2	0	0	1	438.299	-1.21801	-1.21873	-441.955	-0.228409	37	0.538623
2	0	0	1	438.332	-1.21466	-1.21523	-428.502	-0.242925	37	0.520728
2	0	0	1	438.365	-1.21134	-1.2122	-415.504	-0.256916	37	0.503674
2	0	0	1	438.399	-1.208	-1.20958	-402.981	-0.270566	37	0.487439
2	0	0	1	438.432	-1.20466	-1.20477	-390.671	-0.283801	37	0.47067
2	0	0	1	438.466	-1.20133	-1.20318	-378.526	-0.296627	37	0.455433
2	0	0	1	438.499	-1.19801	-1.19935	-366.659	-0.308979	37	0.439752
2	0	0	1	438.532	-1.19467	-1.19643	-355.023	-0.321012	37	0.424759
2	0	0	1	438.566	-1.19133	-1.19263	-343.493	-0.332659	37	0.409658
2	0	0	1	438.599	-1.18801	-1.18723	-332.202	-0.343857	37	0.394399
2	0	0	1	438.632	-1.18467	-1.18544	-321.176	-0.354751	37	0.380736
2	0	0	1	438.666	-1.18133	-1.18261	-310.35	-0.365279	37	0.367023
2	0	0	1	438.699	-1.17801	-1.18022	-299.555	-0.375386	37	0.353541
2	0	0	1	438.732	-1.17467	-1.17649	-288.777	-0.385193	37	0.339744
2	0	0	1	438.766	-1.17133	-1.17174	-278.249	-0.394645	37	0.326035
2	0	0	1	438.799	-1.16801	-1.16823	-267.892	-0.403693	37	0.31296
2	0	0	1	438.832	-1.16467	-1.16453	-257.499	-0.412449	37	0.299866
2	0	0	1	438.866	-1.16132	-1.16171	-247.321	-0.420862	37	0.287316
2	0	0	1	438.899	-1.158	-1.16053	-237.161	-0.428888	37	0.275233
2	0	0	1	438.932	-1.15466	-1.15646	-227.162	-0.436625	37	0.262705
2	0	0	1	438.966	-1.15132	-1.15105	-217.133	-0.444028	37	0.249931
2	0	0	1	438.999	-1.148	-1.14908	-207.348	-0.451078	37	0.238259
2	0	0	1	439.032	-1.14467	-1.14588	-197.746	-0.457807	37	0.226592
2	0	0	1	439.066	-1.14133	-1.14298	-188.193	-0.464235	37	0.215101
2	0	0	1	439.099	-1.13799	-1.13831	-178.772	-0.470346	37	0.203497
2	0	0	1	439.132	-1.13467	-1.13589	-169.539	-0.476111	37	0.192577
2	0	0	1	439.166	-1.13133	-1.13075	-160.352	-0.481604	37	0.181318
2	0	0	1	439.199	-1.12799	-1.12808	-151.358	-0.486794	37	0.170743
2	0	0	1	439.232	-1.12467	-1.12565	-142.523	-0.491656	37	0.160432
2	0	0	1	439.266	-1.12133	-1.12211	-133.785	-0.496254	37	0.150123
2	0	0	1	439.299	-1.11799	-1.11968	-125.125	-0.500561	37	0.1401
2	0	0	1	439.332	-1.11467	-1.11463	-116.694	-0.504559	37	0.13007
2	0	0	1	439.366	-1.11133	-1.11267	-108.303	-0.508301	37	0.120505
2	0	0	1	439.399	-1.10798	-1.10917	-100.121	-0.511766	37	0.111051
2	0	0	1	439.432	-1.10466	-1.10599	-92.0845	-0.514941	37	0.101845
2	0	0	1	439.466	-1.10132	-1.10383	-84.089	-0.517867	37	0.0928202
2	0	0	1	439.499	-1.09798	-1.09888	-76.2394	-0.520529	37	0.0837783
2	0	0	1	439.532	-1.09466	-1.09569	-68.5203	-0.522917	37	0.075077
2	0	0	1	439.566	-1.09133	-1.09124	-60.9257	-0.525064	37	0.0664848
2	0	0	1	439.599	-1.08799	-1.08736	-53.4686	-0.526959	37	0.0581398
2	0	0	1	439.632	-1.08465	-1.08506	-46.0665	-0.528607	37	0.049985
2	0	0	1	439.681	-1.07983	-1.07987	-35.6667	-0.530544	37	0.0385155
2	0	0	1	439.729	-1.07499	-1.0754	-25.1795	-0.532131	38	0.027078
2	0	0	1	439.762	-1.07165	-1.07449	-18.164	-0.532841	38	0.0195171
2	0	0	1	439.796	-1.06833	-1.06675	-11.1926	-0.533315	38	0.0119397
2	0	0	1	439.829	-1.06499	-1.06839	-4.30327	-0.533559	38	0.00459755
2	0	0	1	439.862	-1.06165	-1.06224	2.49275	-0.533576	38	-0.00264788
2	1	0	1	439.896	-1.05833	-1.05859	9.14992	-0.53337	38	-0.00968602
2	1	0	1	439.929	-1.05499	-1.0558	15.7966	-0.53294	38	-0.0166781
2	1	0	1	439.962	-1.05164	-1.05124	22.374	-0.532289	38	-0.0235205
2	1	0	1	439.996	-1.04832	-1.05052	28.8477	-0.531426	38	-0.0303051
2	1	0	1	440.029	-1.04498	-1.04611	35.2473	-0.530342	38	-0.0368725
2	1	0	1	440.062	-1.04164	-1.04201	41.6852	-0.529045	38	-0.0434363
2	1	0	1	440.096	-1.03832	-1.03877	48.0788	-0.527537	38	-0.049943
2	1	0	1	440.129	-1.03499	-1.03607	54.503	-0.525816	38	-0.0564691
2	1	0	1	440.162	-1.03165	-1.03214	60.9214	-0.523875	38	-0.0628793
2	1	0	1	440.196	-1.02831	-1.02897	67.3487	-0.52172	38	-0.0693001
2	1	0	1	440.229	-1.02499	-1.02464	73.8295	-0.519364	38	-0.0756489
2	1	0	1	440.262	-1.02165	-1.02274	80.3569	-0.516776	38	-0.0821842
2	1	0	1	440.296	-1.01831	-1.01948	87.1187	-0.513966	38	-0.0888161
2	1	0	1	440.329	-1.01499	-1.0157	94.0376	-0.510945	38	-0.0955143
2	1	0	1	440.362	-1.01165	-1.01292	101.17	-0.507671	38	-0.102477
2	1	0	1	440.411	-1.00681	-1.00657	111.348	-0.502479	38	-0.112079
2	1	0	1	440.459	-1.00199	-1.00338	120.873	-0.496971	37	-0.121282
2	1	0	1	440.492	-0.998645	-0.998537	127.111	-0.492815	37	-0.126925
2	1	0	1	440.526	-0.995305	-0.994104	132.498	-0.488467	37	-0.131717
2	1	0	1	440.559	-0.991984	-0.992225	135.64	-0.484005	37	-0.134585
2	1	0	1	440.592	-0.988644	-0.988734	134.802	-0.479492	37	-0.133283
2	1	0	1	440.626	-0.985304	-0.985421	149.604	-0.474722	37	-0.147423
2	1	0	1	440.659	-0.981976	-0.981923	160.281	-0.469541	37	-0.157383
2	1	0	1	440.692	-0.978649	-0.979297	168.132	-0.464057	37	-0.164651
2	1	0	1	440.726	-0.975309	-0.974864	175.282	-0.458307	37	-0.170876
2	1	0	1	440.759	-0.971969	-0.972079	182.494	-0.452317	37	-0.177398
2	1	0	1	440.792	-0.968648	-0.967926	189.823	-0.446123	37	-0.183734
2	1	0	1	440.826	-0.965308	-0.965473	197.49	-0.43964	37	-0.190672
2	1	0	1	440.859	-0.961967	-0.962243	205.074	-0.432903	37	-0.197331
2	1	0	1	440.892	-0.958647	-0.960053	212.623	-0.425954	37	-0.20413
2	1	0	1	440.926	-0.955307	-0.95496	220.215	-0.418711	37	-0.210296
2	1	0	1	440.959	-0.951966	-0.950835	227.751	-0.411215	37	-0.216554
2	1	0	1	440.977	-0.950139	-0.950695	231.597	-0.407051	37	-0.220178