File: 2h_200mAcm2_cleanNaOH _j_100-20mAcm2_2025-10-28_08_LSV_C01_noheader.txt
mode	ox/red	error	control changes	time/s	control/V	Ewe/V	<I>/mA	(Q-Qo)/C	I Range	P/W
2	0	0	0	344.974	-1.25984	-1.26034	-284.288	-0.00159201	37	0.358299
2	0	0	1	344.992	-1.25801	-1.25916	-353.649	-0.00818691	37	0.445302
2	0	0	1	345.026	-1.25467	-1.25523	-309.914	-0.0192057	37	0.389014
2	0	0	1	345.059	-1.25135	-1.25285	-282.369	-0.0289985	37	0.353765
2	0	0	1	345.092	-1.24801	-1.24784	-262.847	-0.0380743	37	0.327991
2	0	0	1	345.126	-1.24467	-1.24447	-247.922	-0.0465806	37	0.308531
2	0	0	1	345.159	-1.24135	-1.24203	-235.896	-0.0545918	37	0.29299
2	0	0	1	345.192	-1.23801	-1.23935	-225.525	-0.0622788	37	0.279504
2	0	0	1	345.226	-1.23467	-1.23494	-216.524	-0.069644	37	0.267396
2	0	0	1	345.259	-1.23135	-1.23211	-208.617	-0.0766849	37	0.257038
2	0	0	1	345.292	-1.22801	-1.22785	-201.383	-0.0835161	37	0.247268
2	0	0	1	345.326	-1.22467	-1.22488	-194.511	-0.0901122	37	0.238253
2	0	0	1	345.359	-1.22135	-1.22139	-188.011	-0.0964478	37	0.229636
2	0	0	1	345.392	-1.21801	-1.2185	-181.861	-0.102611	37	0.221597
2	0	0	1	345.426	-1.21466	-1.21376	-175.983	-0.108574	37	0.213602
2	0	0	1	345.459	-1.21134	-1.21202	-170.285	-0.114309	37	0.206389
2	0	0	1	345.492	-1.208	-1.209	-164.758	-0.11989	37	0.199193
2	0	0	1	345.526	-1.20466	-1.20571	-159.345	-0.125289	37	0.192124
2	0	0	1	345.559	-1.20133	-1.20164	-154.001	-0.130509	37	0.185055
2	0	0	1	345.592	-1.19801	-1.19896	-148.911	-0.135525	37	0.178538
2	0	0	1	345.626	-1.19467	-1.19591	-143.795	-0.1404	37	0.171965
2	0	0	1	345.659	-1.19133	-1.19161	-138.746	-0.145105	37	0.165331
2	0	0	1	345.692	-1.18801	-1.18846	-133.754	-0.149616	37	0.158961
2	0	0	1	345.726	-1.18467	-1.18604	-128.832	-0.153989	37	0.1528
2	0	0	1	345.759	-1.18133	-1.18311	-124.021	-0.158199	37	0.146731
2	0	0	1	345.792	-1.17801	-1.17943	-119.375	-0.162226	37	0.140794
2	0	0	1	345.826	-1.17467	-1.1742	-114.719	-0.166123	37	0.134703
2	0	0	1	345.859	-1.17133	-1.17072	-110.12	-0.169865	37	0.128919
2	0	0	1	345.892	-1.16801	-1.16945	-105.552	-0.173432	37	0.123437
2	0	0	1	345.926	-1.16467	-1.16626	-101.016	-0.176869	37	0.117811
2	0	0	1	345.959	-1.16132	-1.16179	-96.5271	-0.180155	37	0.112144
2	0	0	1	345.992	-1.158	-1.15934	-92.113	-0.183275	37	0.10679
2	0	0	1	346.026	-1.15466	-1.1562	-87.7304	-0.186266	37	0.101434
2	0	0	1	346.059	-1.15132	-1.15183	-83.2353	-0.189108	37	0.0958729
2	0	0	1	346.092	-1.148	-1.1473	-78.9543	-0.191796	37	0.0905842
2	0	0	1	346.126	-1.14467	-1.14457	-74.6418	-0.19434	37	0.0854325
2	0	0	1	346.159	-1.14133	-1.14242	-70.2776	-0.196748	37	0.0802867
2	0	0	1	346.193	-1.13799	-1.13814	-66.0643	-0.199013	37	0.0751901
2	0	0	1	346.226	-1.13467	-1.13706	-61.8647	-0.201124	37	0.0703439
2	0	0	1	346.259	-1.13133	-1.13094	-57.6489	-0.203108	37	0.0651973
2	0	0	1	346.293	-1.12799	-1.12898	-53.3875	-0.204949	37	0.0602736
2	0	0	1	346.326	-1.12467	-1.12404	-49.2156	-0.20664	37	0.0553201
2	0	0	1	346.374	-1.11982	-1.11998	-42.9767	-0.208851	37	0.0481329
2	0	0	1	346.423	-1.11499	-1.11672	-36.8327	-0.210848	38	0.0411319
2	0	0	1	346.456	-1.11167	-1.11292	-32.6232	-0.211989	38	0.0363071
2	0	0	1	346.489	-1.10833	-1.10853	-28.3615	-0.212995	38	0.0314397
2	0	0	1	346.523	-1.10498	-1.10547	-24.0633	-0.213859	38	0.0266014
2	0	0	1	346.556	-1.10166	-1.10204	-19.74	-0.214574	38	0.0217543
2	0	0	1	346.589	-1.09832	-1.09944	-15.4013	-0.215149	38	0.0169328
2	0	0	1	346.623	-1.09498	-1.09573	-11.0071	-0.215577	38	0.0120608
2	0	0	1	346.656	-1.09166	-1.09365	-6.58717	-0.215858	38	0.00720409
2	0	0	1	346.689	-1.08833	-1.08961	-2.17062	-0.215992	38	0.00236512
2	1	0	1	346.723	-1.08499	-1.0853	2.37343	-0.215976	38	-0.00257588
2	1	0	1	346.756	-1.08165	-1.08155	6.96077	-0.215807	38	-0.0075284
2	1	0	1	346.789	-1.07833	-1.07912	11.5872	-0.215487	38	-0.012504
2	1	0	1	346.823	-1.07499	-1.07539	16.3038	-0.215008	38	-0.0175328
2	1	0	1	346.856	-1.07165	-1.07143	21.066	-0.214372	38	-0.0225708
2	1	0	1	346.889	-1.06833	-1.06906	25.8967	-0.21358	38	-0.0276851
2	1	0	1	346.923	-1.06499	-1.06474	30.7889	-0.21262	38	-0.0327822
2	1	0	1	346.956	-1.06165	-1.06222	35.6296	-0.211499	38	-0.0378464
2	1	0	1	346.989	-1.05833	-1.05998	40.5039	-0.210222	38	-0.0429333
2	1	0	1	347.023	-1.05499	-1.05592	45.4127	-0.208775	38	-0.0479523
2	1	0	1	347.056	-1.05164	-1.0531	50.4166	-0.207162	38	-0.0530939
2	1	0	1	347.089	-1.04832	-1.04764	55.4029	-0.205393	38	-0.0580424
2	1	0	1	347.123	-1.04498	-1.04557	60.4078	-0.203446	38	-0.0631608
2	1	0	1	347.156	-1.04164	-1.04214	65.4846	-0.201331	38	-0.0682443
2	1	0	1	347.189	-1.03832	-1.03858	70.622	-0.199052	38	-0.0733464
2	1	0	1	347.223	-1.03499	-1.0369	75.8621	-0.1966	38	-0.0786617
2	1	0	1	347.256	-1.03165	-1.03176	81.2738	-0.193963	38	-0.0838548
2	1	0	1	347.289	-1.02831	-1.02966	86.8742	-0.191142	38	-0.0894511
2	1	0	1	347.323	-1.02499	-1.02383	92.6163	-0.188149	38	-0.0948232
2	1	0	1	347.356	-1.02165	-1.02158	98.5009	-0.184944	38	-0.100627
2	1	0	1	347.389	-1.01831	-1.01837	104.393	-0.181543	38	-0.10631
2	1	0	1	347.438	-1.01349	-1.01437	112.474	-0.176269	38	-0.11409
2	1	0	1	347.486	-1.00865	-1.00969	120.513	-0.170698	37	-0.12168
2	1	0	1	347.519	-1.00531	-1.00518	125.316	-0.166581	37	-0.125964
2	1	0	1	347.553	-1.00199	-1.00351	129.224	-0.162345	37	-0.129678
2	1	0	1	347.586	-0.998645	-0.998626	133.009	-0.157955	37	-0.132826
2	1	0	1	347.619	-0.995305	-0.994719	130.63	-0.15354	37	-0.12994
2	1	0	1	347.653	-0.991984	-0.992877	142.824	-0.148988	37	-0.141806
2	1	0	1	347.686	-0.988644	-0.98825	153.38	-0.144023	37	-0.151578
2	1	0	1	347.719	-0.985304	-0.987432	160.839	-0.138761	37	-0.158817
2	1	0	1	347.753	-0.981976	-0.982103	167.355	-0.133283	37	-0.16436
2	1	0	1	347.786	-0.978649	-0.979378	173.882	-0.127589	37	-0.170296
2	1	0	1	347.819	-0.975309	-0.976074	180.497	-0.121658	37	-0.176178
2	1	0	1	347.853	-0.971969	-0.971181	187.515	-0.115499	37	-0.182111
2	1	0	1	347.886	-0.968648	-0.968589	194.781	-0.109139	37	-0.188663
2	1	0	1	347.919	-0.965308	-0.965254	202.231	-0.102495	37	-0.195204
2	1	0	1	347.953	-0.961967	-0.963032	209.894	-0.0955988	37	-0.202135
2	1	0	1	347.986	-0.958647	-0.958121	217.427	-0.088492	37	-0.208322
2	1	0	1	348.019	-0.955307	-0.955868	225.067	-0.0810887	37	-0.215134
2	1	0	1	348.053	-0.951966	-0.951895	232.594	-0.073432	37	-0.221405
2	1	0	1	348.071	-0.950139	-0.952536	236.442	-0.0691802	37	-0.225219