File: 2h_200mAcm2_cleanNaOH_all _j_2025-10-28b_12_LSV_C01_noheader.txt
mode	ox/red	error	control changes	time/s	control/V	Ewe/V	<I>/mA	(Q-Qo)/C	I Range	P/W
2	0	0	0	711.791	-1.25984	-1.26348	-498.875	-0.0027937	37	0.630316
2	0	0	1	711.81	-1.25801	-1.25943	-741.601	-0.0165771	37	0.933991
2	0	0	1	711.843	-1.25467	-1.25565	-686.276	-0.0403336	37	0.861725
2	0	0	1	711.876	-1.25135	-1.25108	-656.095	-0.0625744	37	0.82083
2	0	0	1	711.91	-1.24801	-1.24897	-633.425	-0.0840772	37	0.791131
2	0	0	1	711.943	-1.24467	-1.24532	-614.282	-0.104886	37	0.764978
2	0	0	1	711.976	-1.24135	-1.24168	-596.905	-0.124967	37	0.741162
2	0	0	1	712.01	-1.23801	-1.23767	-580.464	-0.144605	37	0.718425
2	0	0	1	712.043	-1.23467	-1.23571	-564.595	-0.163704	37	0.697676
2	0	0	1	712.076	-1.23135	-1.23363	-549.38	-0.182173	37	0.677732
2	0	0	1	712.11	-1.22801	-1.23008	-534.519	-0.200252	37	0.657502
2	0	0	1	712.143	-1.22467	-1.22578	-519.982	-0.217839	37	0.637384
2	0	0	1	712.176	-1.22135	-1.22272	-505.863	-0.234846	37	0.618528
2	0	0	1	712.21	-1.21801	-1.21965	-491.974	-0.251488	37	0.600035
2	0	0	1	712.243	-1.21466	-1.21469	-478.371	-0.267672	37	0.581072
2	0	0	1	712.276	-1.21134	-1.21214	-464.995	-0.28331	37	0.563639
2	0	0	1	712.31	-1.208	-1.20819	-451.943	-0.298602	37	0.546032
2	0	0	1	712.343	-1.20466	-1.2065	-438.823	-0.313458	37	0.529441
2	0	0	1	712.376	-1.20133	-1.20273	-426.094	-0.327882	37	0.512477
2	0	0	1	712.41	-1.19801	-1.19906	-413.624	-0.3418	37	0.495961
2	0	0	1	712.443	-1.19467	-1.19649	-401.335	-0.355389	37	0.480191
2	0	0	1	712.476	-1.19133	-1.19107	-389.321	-0.368574	37	0.463709
2	0	0	1	712.51	-1.18801	-1.18858	-377.491	-0.381283	37	0.448677
2	0	0	1	712.543	-1.18467	-1.18522	-365.906	-0.393677	37	0.433678
2	0	0	1	712.576	-1.18133	-1.18211	-354.341	-0.405686	37	0.41887
2	0	0	1	712.61	-1.17801	-1.17856	-343.037	-0.417243	37	0.404289
2	0	0	1	712.643	-1.17467	-1.17571	-331.841	-0.428494	37	0.390149
2	0	0	1	712.676	-1.17133	-1.17158	-320.881	-0.439375	37	0.375937
2	0	0	1	712.71	-1.16801	-1.16823	-310.018	-0.44983	37	0.362172
2	0	0	1	712.743	-1.16467	-1.16507	-299.227	-0.459985	37	0.348622
2	0	0	1	712.776	-1.16132	-1.16045	-288.649	-0.469784	37	0.334962
2	0	0	1	712.81	-1.158	-1.15957	-278.326	-0.479178	37	0.322737
2	0	0	1	712.843	-1.15466	-1.15548	-268	-0.488283	37	0.309669
2	0	0	1	712.876	-1.15132	-1.15135	-257.646	-0.497043	37	0.296641
2	0	0	1	712.91	-1.148	-1.14917	-247.677	-0.505438	37	0.284623
2	0	0	1	712.943	-1.14467	-1.14364	-237.744	-0.513503	37	0.271893
2	0	0	1	712.976	-1.14133	-1.14092	-227.994	-0.521263	37	0.260123
2	0	0	1	713.01	-1.13799	-1.13896	-218.229	-0.528697	37	0.248554
2	0	0	1	713.043	-1.13467	-1.13405	-208.642	-0.535765	37	0.236611
2	0	0	1	713.076	-1.13133	-1.13291	-199.178	-0.542558	37	0.225652
2	0	0	1	713.11	-1.12799	-1.12719	-189.683	-0.549034	37	0.213808
2	0	0	1	713.143	-1.12467	-1.12529	-180.39	-0.55516	37	0.202991
2	0	0	1	713.176	-1.12133	-1.12252	-171.168	-0.561013	37	0.19214
2	0	0	1	713.21	-1.11799	-1.11843	-161.993	-0.56656	37	0.181177
2	0	0	1	713.243	-1.11467	-1.11567	-152.972	-0.571771	37	0.170666
2	0	0	1	713.276	-1.11133	-1.11207	-143.983	-0.576713	37	0.16012
2	0	0	1	713.31	-1.10798	-1.10809	-135.112	-0.581357	37	0.149716
2	0	0	1	713.343	-1.10466	-1.10397	-126.345	-0.58568	37	0.139481
2	0	0	1	713.376	-1.10132	-1.10155	-117.654	-0.589738	37	0.129602
2	0	0	1	713.41	-1.09798	-1.09874	-109.015	-0.593507	37	0.119779
2	0	0	1	713.443	-1.09466	-1.09458	-100.594	-0.59697	37	0.110108
2	0	0	1	713.476	-1.09133	-1.09309	-92.074	-0.60017	37	0.100645
2	0	0	1	713.51	-1.08799	-1.08795	-83.7595	-0.60309	37	0.0911263
2	0	0	1	713.543	-1.08465	-1.08468	-75.4483	-0.605732	37	0.0818374
2	0	0	1	713.576	-1.08133	-1.08142	-67.2668	-0.608085	37	0.072744
2	0	0	1	713.61	-1.07799	-1.0785	-59.0977	-0.610179	37	0.0637372
2	0	0	1	713.643	-1.07465	-1.0753	-51.0184	-0.612002	37	0.0548601
2	0	0	1	713.676	-1.07133	-1.07208	-43.1055	-0.613547	37	0.0462124
2	0	0	1	713.74	-1.06499	-1.06384	-27.9974	-0.615912	38	0.0297846
2	0	0	1	713.773	-1.06165	-1.06274	-20.2317	-0.616701	38	0.0215011
2	0	0	1	713.806	-1.05833	-1.05702	-12.5606	-0.61723	38	0.0132768
2	0	0	1	713.84	-1.05499	-1.05391	-5.00072	-0.617507	38	0.00527032
2	0	0	1	713.873	-1.05164	-1.05211	2.50677	-0.617533	38	-0.0026374
2	1	0	1	713.906	-1.04832	-1.05003	9.87948	-0.617312	38	-0.0103738
2	1	0	1	713.94	-1.04498	-1.04488	17.0889	-0.616846	38	-0.0178558
2	1	0	1	713.973	-1.04164	-1.04208	24.3173	-0.616139	38	-0.0253407
2	1	0	1	714.006	-1.03832	-1.03886	31.4273	-0.615196	38	-0.0326487
2	1	0	1	714.04	-1.03499	-1.0356	38.4196	-0.614018	38	-0.0397872
2	1	0	1	714.073	-1.03165	-1.03281	45.3782	-0.612603	38	-0.0468672
2	1	0	1	714.107	-1.02831	-1.02882	52.3874	-0.610955	38	-0.0538971
2	1	0	1	714.14	-1.02499	-1.02602	59.4635	-0.609083	38	-0.0610107
2	1	0	1	714.173	-1.02165	-1.02327	66.6208	-0.606962	38	-0.068171
2	1	0	1	714.207	-1.01831	-1.01958	74.0603	-0.604597	38	-0.0755106
2	1	0	1	714.24	-1.01499	-1.01476	81.4052	-0.602001	38	-0.0826067
2	1	0	1	714.273	-1.01165	-1.01219	88.6986	-0.599145	38	-0.0897798
2	1	0	1	714.307	-1.00831	-1.00914	96.0096	-0.596045	38	-0.096887
2	1	0	1	714.34	-1.00499	-1.00429	103.429	-0.592719	38	-0.103872
2	1	0	1	714.388	-1.00015	-1.00116	113.948	-0.587405	38	-0.11408
2	1	0	1	714.437	-0.995305	-0.994721	124.298	-0.581732	37	-0.123642
2	1	0	1	714.47	-0.991984	-0.993901	130.464	-0.57749	37	-0.129669
2	1	0	1	714.503	-0.988644	-0.98875	135.779	-0.573029	37	-0.134252
2	1	0	1	714.537	-0.985304	-0.985048	137.234	-0.568456	37	-0.135182
2	1	0	1	714.57	-0.981976	-0.982596	139.581	-0.563851	37	-0.137151
2	1	0	1	714.603	-0.978649	-0.979313	156.039	-0.558905	37	-0.152812
2	1	0	1	714.637	-0.975309	-0.977334	166.178	-0.553504	37	-0.162411
2	1	0	1	714.67	-0.971969	-0.97294	173.703	-0.547811	37	-0.169002
2	1	0	1	714.703	-0.968648	-0.967818	180.286	-0.54192	37	-0.174484
2	1	0	1	714.737	-0.965308	-0.965896	186.566	-0.535781	37	-0.180203
2	1	0	1	714.77	-0.961967	-0.961441	192.82	-0.529431	37	-0.185385
2	1	0	1	714.803	-0.958647	-0.958231	198.989	-0.522914	37	-0.190677
2	1	0	1	714.837	-0.955307	-0.955996	204.914	-0.516155	37	-0.195897
2	1	0	1	714.87	-0.951966	-0.952506	210.53	-0.509205	37	-0.200531
2	1	0	1	714.888	-0.950139	-0.949927	213.59	-0.505357	37	-0.202895