File: 2h_200mAcm2_cleanNaOH _j100_scanRate_2025-10-28_12_LSV_C01_noheader.txt
mode	ox/red	error	control changes	time/s	control/V	Ewe/V	<I>/mA	(Q-Qo)/C	I Range	P/W
2	0	0	0	670.916	-1.25984	-1.26105	-295.968	-0.0105175	37	0.37323
2	0	0	1	671.099	-1.25801	-1.25884	-265.742	-0.0597096	37	0.334526
2	0	0	1	671.432	-1.25468	-1.25546	-256.476	-0.146502	37	0.321995
2	0	0	1	671.766	-1.25134	-1.25275	-251.034	-0.230985	37	0.314484
2	0	0	1	672.099	-1.24801	-1.24845	-245.331	-0.313587	37	0.306283
2	0	0	1	672.432	-1.24468	-1.24572	-239.784	-0.394314	37	0.298704
2	0	0	1	672.766	-1.24134	-1.24197	-234.485	-0.473261	37	0.291224
2	0	0	1	673.099	-1.23801	-1.23866	-229.178	-0.550432	37	0.283874
2	0	0	1	673.433	-1.23467	-1.23509	-223.851	-0.625834	37	0.276477
2	0	0	1	673.766	-1.23134	-1.23173	-218.743	-0.699495	37	0.269432
2	0	0	1	674.099	-1.22801	-1.22848	-213.587	-0.771452	37	0.262388
2	0	0	1	674.433	-1.22467	-1.22476	-208.385	-0.841656	37	0.255221
2	0	0	1	674.766	-1.22134	-1.22276	-203.235	-0.910157	37	0.248508
2	0	0	1	675.099	-1.21801	-1.21889	-198.294	-0.976964	37	0.241699
2	0	0	1	675.433	-1.21467	-1.2157	-192.993	-1.04207	37	0.234623
2	0	0	1	675.766	-1.21134	-1.21228	-187.96	-1.10546	37	0.227861
2	0	0	1	676.1	-1.208	-1.20736	-182.964	-1.16718	37	0.220903
2	0	0	1	676.433	-1.20467	-1.20567	-177.857	-1.22722	37	0.214437
2	0	0	1	676.766	-1.20134	-1.20243	-172.918	-1.28558	37	0.207921
2	0	0	1	677.1	-1.198	-1.19978	-168.196	-1.34231	37	0.201798
2	0	0	1	677.433	-1.19467	-1.19637	-163.621	-1.3975	37	0.195751
2	0	0	1	677.766	-1.19134	-1.19136	-158.857	-1.45114	37	0.189256
2	0	0	1	678.1	-1.188	-1.18896	-154.074	-1.50319	37	0.183188
2	0	0	1	678.433	-1.18467	-1.18526	-149.445	-1.55368	37	0.177131
2	0	0	1	678.767	-1.18133	-1.18113	-144.057	-1.60251	37	0.170151
2	0	0	1	679.1	-1.178	-1.17863	-139.437	-1.64966	37	0.164345
2	0	0	1	679.433	-1.17467	-1.17557	-134.909	-1.69528	37	0.158594
2	0	0	1	679.767	-1.17133	-1.17166	-130.585	-1.73942	37	0.153001
2	0	0	1	680.1	-1.168	-1.1681	-126.21	-1.78211	37	0.147426
2	0	0	1	680.433	-1.16467	-1.16616	-121.808	-1.82334	37	0.142048
2	0	0	1	680.767	-1.16133	-1.16309	-117.409	-1.86311	37	0.136557
2	0	0	1	681.1	-1.158	-1.15878	-113.118	-1.90143	37	0.131079
2	0	0	1	681.434	-1.15466	-1.1559	-108.959	-1.93835	37	0.125946
2	0	0	1	681.767	-1.15133	-1.15192	-104.779	-1.97387	37	0.120697
2	0	0	1	682.1	-1.148	-1.14869	-100.622	-2.00799	37	0.115583
2	0	0	1	682.434	-1.14466	-1.14496	-96.5276	-2.04073	37	0.11052
2	0	0	1	682.767	-1.14133	-1.14121	-92.4517	-2.07213	37	0.105507
2	0	0	1	683.1	-1.138	-1.13907	-88.4135	-2.10218	37	0.100709
2	0	0	1	683.434	-1.13466	-1.13508	-84.7013	-2.13092	37	0.0961429
2	0	0	1	683.767	-1.13133	-1.12971	-80.869	-2.15842	37	0.0913587
2	0	0	1	684.101	-1.12799	-1.12938	-76.9227	-2.18462	37	0.0868747
2	0	0	1	684.434	-1.12466	-1.12574	-73.0685	-2.20951	37	0.0822563
2	0	0	1	684.767	-1.12133	-1.12193	-69.1855	-2.23311	37	0.0776212
2	0	0	1	685.101	-1.11799	-1.11746	-65.3875	-2.25543	37	0.0730679
2	0	0	1	685.434	-1.11466	-1.11541	-61.6157	-2.27649	37	0.0687267
2	0	0	1	685.767	-1.11133	-1.11057	-57.8926	-2.29631	37	0.0642937
2	0	0	1	686.101	-1.10799	-1.10748	-54.2346	-2.31489	37	0.0600635
2	0	0	1	686.434	-1.10466	-1.10473	-50.5213	-2.33225	37	0.0558123
2	0	0	1	686.768	-1.10132	-1.10219	-46.9177	-2.34838	37	0.0517122
2	0	0	1	687.117	-1.09782	-1.09826	-43.1991	-2.36401	37	0.0474439
2	0	0	1	687.468	-1.09432	-1.0945	-39.4598	-2.3784	38	0.0431886
2	0	0	1	687.801	-1.09099	-1.09029	-35.9575	-2.39086	38	0.0392042
2	0	0	1	688.134	-1.08766	-1.08736	-32.5141	-2.40217	38	0.0353546
2	0	0	1	688.468	-1.08432	-1.08566	-29.0665	-2.41233	38	0.0315562
2	0	0	1	688.801	-1.08099	-1.08115	-25.6883	-2.42134	38	0.0277731
2	0	0	1	689.134	-1.07765	-1.08017	-22.2581	-2.42923	38	0.0240425
2	0	0	1	689.468	-1.07432	-1.07337	-18.8075	-2.43596	38	0.0201874
2	0	0	1	689.801	-1.07099	-1.07014	-15.3829	-2.44155	38	0.0164619
2	0	0	1	690.135	-1.06765	-1.06807	-11.9482	-2.44599	38	0.0127615
2	0	0	1	690.468	-1.06432	-1.06424	-8.6824	-2.44932	38	0.00924018
2	0	0	1	690.801	-1.06099	-1.0604	-5.59117	-2.45159	38	0.00592887
2	0	0	1	691.135	-1.05765	-1.05673	-2.623	-2.45287	39	0.0027718
2	0	0	1	691.468	-1.05432	-1.05659	0.447351	-2.45313	39	-0.000472667
2	1	0	1	691.801	-1.05099	-1.05231	3.66383	-2.45233	39	-0.00385548
2	1	0	1	692.135	-1.04765	-1.04753	7.14113	-2.45042	39	-0.00748056
2	1	0	1	692.468	-1.04432	-1.04384	10.7179	-2.44733	39	-0.0111878
2	1	0	1	692.802	-1.04098	-1.04156	14.6843	-2.44297	38	-0.0152946
2	1	0	1	693.135	-1.03765	-1.03517	19.0447	-2.43722	38	-0.0197145
2	1	0	1	693.468	-1.03432	-1.03374	23.8652	-2.42995	38	-0.0246704
2	1	0	1	693.802	-1.03098	-1.03288	29.4359	-2.42094	38	-0.0304037
2	1	0	1	694.135	-1.02765	-1.02854	35.821	-2.40992	38	-0.0368433
2	1	0	1	694.468	-1.02432	-1.02681	42.1795	-2.39678	38	-0.0433102
2	1	0	1	694.802	-1.02098	-1.02183	45.9428	-2.38197	38	-0.0469457
2	1	0	1	695.135	-1.01765	-1.01817	48.226	-2.36628	38	-0.0491022
2	1	0	1	695.469	-1.01431	-1.01362	55.1241	-2.34888	38	-0.0558748
2	1	0	1	695.802	-1.01098	-1.01156	58.8021	-2.32976	38	-0.059482
2	1	0	1	696.135	-1.00765	-1.00742	60.6791	-2.30974	38	-0.0611291
2	1	0	1	696.469	-1.00431	-1.00456	60.8564	-2.2894	38	-0.0611338
2	1	0	1	696.802	-1.00098	-1.00139	59.7326	-2.26923	38	-0.0598153
2	1	0	1	697.135	-0.997646	-0.996783	58.0075	-2.24953	38	-0.0578209
2	1	0	1	697.469	-0.994312	-0.995072	56.0744	-2.23046	38	-0.0557981
2	1	0	1	697.802	-0.990978	-0.990749	54.2819	-2.212	38	-0.0537797
2	1	0	1	698.136	-0.987643	-0.987257	52.6138	-2.19412	38	-0.0519433
2	1	0	1	698.469	-0.984309	-0.984292	51.2381	-2.17674	38	-0.0504332
2	1	0	1	698.802	-0.980977	-0.982045	50.1939	-2.15977	38	-0.0492926
2	1	0	1	699.136	-0.977642	-0.976524	49.4694	-2.14309	38	-0.0483081
2	1	0	1	699.469	-0.97431	-0.97419	49.0695	-2.12659	38	-0.047803
2	1	0	1	699.802	-0.970976	-0.970451	48.8443	-2.11019	38	-0.047401
2	1	0	1	700.136	-0.967641	-0.968151	49.1277	-2.09378	38	-0.047563
2	1	0	1	700.469	-0.964307	-0.964888	49.6228	-2.07724	38	-0.0478804
2	1	0	1	700.803	-0.960974	-0.962082	50.4239	-2.06048	38	-0.0485119
2	1	0	1	701.136	-0.95764	-0.957707	51.4487	-2.04341	38	-0.0492728
2	1	0	1	701.469	-0.954307	-0.954536	52.5942	-2.02598	38	-0.0502031
2	1	0	1	701.753	-0.951473	-0.951852	53.6309	-2.01088	38	-0.0510487
2	1	0	1	701.883	-0.950139	-0.949003	54.1798	-2.00382	38	-0.0514168