File: TS-82-25-02-120-100_2024-07-29_hematite_slurry_06_LSV_C01.txt
mode	ox/red	error	control changes	time/s	control/V	Ewe/V	<I>/mA	(Q-Qo)/C	I Range	<Ece>/V	P/W	Ewe-Ece/V
2	1	0	0	7323.55	-0.95055	-0.950896	28.9277	0.00098074	38	-1.1371	-0.0275073	0.186202
2	1	0	1	7323.73	-0.952385	-0.951994	25.2116	0.00566426	38	-1.12897	-0.0240013	0.176975
2	1	0	1	7324.07	-0.955719	-0.956348	19.4743	0.01302	38	-1.09775	-0.0186242	0.141404
2	1	0	1	7324.4	-0.959052	-0.958635	14.6257	0.0186195	38	-1.05342	-0.0140207	0.0947896
2	1	0	1	7324.73	-0.962386	-0.963367	10.4095	0.0227167	38	-0.991866	-0.0100282	0.0284995
2	1	0	1	7325.07	-0.965719	-0.965193	6.66452	0.0254919	38	-0.90835	-0.00643254	-0.0568427
2	1	0	1	7325.42	-0.96922	-0.968724	3.16973	0.0271196	38	-0.78507	-0.0030706	-0.183654
2	1	0	1	7325.77	-0.972721	-0.974364	-0.0177908	0.0276309	39	-0.555288	1.73347e-05	-0.419076
2	0	0	1	7326.1	-0.976054	-0.976024	-2.80887	0.0270995	39	-0.169011	0.00274153	-0.807013
2	0	0	1	7326.43	-0.979387	-0.979581	-5.36569	0.0256782	39	0.129325	0.00525613	-1.10891
2	0	0	1	7326.77	-0.982721	-0.98222	-7.73225	0.0234381	39	0.31403	0.00759477	-1.29625
2	0	0	1	7327.1	-0.986055	-0.985335	-9.94095	0.0204328	39	0.402472	0.00979517	-1.38781
2	0	0	1	7327.43	-0.989389	-0.989138	-11.8753	0.0167391	38	0.421472	0.0117463	-1.41061
2	0	0	1	7327.77	-0.992723	-0.994071	-13.7901	0.0124087	38	0.42639	0.0137083	-1.42046
2	0	0	1	7328.1	-0.996057	-0.995621	-15.7084	0.00743951	38	0.430204	0.0156396	-1.42583
2	0	0	1	7328.43	-0.999391	-0.999701	-17.6116	0.00183255	38	0.43424	0.0176063	-1.43394
2	0	0	1	7328.77	-1.00272	-1.00292	-19.5175	-0.00440726	38	0.438205	0.0195745	-1.44112
2	0	0	1	7329.1	-1.00606	-1.00667	-21.442	-0.0112851	38	0.444134	0.0215851	-1.45081
2	0	0	1	7329.43	-1.00939	-1.01121	-23.4421	-0.0188209	38	0.45371	0.0237049	-1.46492
2	0	0	1	7329.77	-1.01272	-1.01368	-25.2777	-0.0269974	38	0.480269	0.0256235	-1.49395
2	0	0	1	7330.1	-1.01606	-1.01619	-27.4791	-0.0358429	38	0.53138	0.0279241	-1.54757
2	0	0	1	7330.43	-1.01939	-1.02004	-29.6966	-0.045433	38	0.551252	0.0302916	-1.57129
2	0	0	1	7330.77	-1.02273	-1.02314	-31.6458	-0.0557125	38	0.556251	0.0323781	-1.57939
2	0	0	1	7331.1	-1.02606	-1.02729	-33.5307	-0.0666266	38	0.558977	0.0344457	-1.58627
2	0	0	1	7331.43	-1.02939	-1.02983	-35.3932	-0.078164	38	0.561358	0.0364488	-1.59118
2	0	0	1	7331.77	-1.03273	-1.03386	-37.2018	-0.0903174	38	0.562877	0.0384615	-1.59674
2	0	0	1	7332.1	-1.03606	-1.03692	-38.9846	-0.10307	38	0.564819	0.0404239	-1.60174
2	0	0	1	7332.43	-1.03939	-1.03903	-40.767	-0.116417	38	0.566293	0.0423583	-1.60533
2	0	0	1	7332.77	-1.04273	-1.04404	-42.5398	-0.130356	38	0.567902	0.044413	-1.61194
2	0	0	1	7333.1	-1.04606	-1.04676	-44.3113	-0.144886	38	0.569033	0.0463834	-1.61579
2	0	0	1	7333.43	-1.0494	-1.05065	-46.0878	-0.160007	38	0.570417	0.0484222	-1.62107
2	0	0	1	7333.77	-1.05273	-1.05368	-47.9031	-0.175723	38	0.571774	0.0504748	-1.62546
2	0	0	1	7334.1	-1.05606	-1.05634	-49.773	-0.192053	38	0.572792	0.0525774	-1.62914
2	0	0	1	7334.43	-1.0594	-1.05937	-51.6659	-0.209015	38	0.574216	0.0547331	-1.63358
2	0	0	1	7334.77	-1.06273	-1.06307	-53.6409	-0.226622	38	0.575579	0.057024	-1.63865
2	0	0	1	7335.1	-1.06606	-1.06728	-55.7284	-0.244909	38	0.577013	0.0594776	-1.64429
2	0	0	1	7335.43	-1.0694	-1.06942	-57.9656	-0.263918	38	0.57834	0.0619894	-1.64776
2	0	0	1	7335.77	-1.07273	-1.07334	-60.308	-0.283691	38	0.579648	0.0647309	-1.65299
2	0	0	1	7336.1	-1.07607	-1.07684	-62.749	-0.304255	38	0.581438	0.0675708	-1.65828
2	0	0	1	7336.43	-1.0794	-1.07929	-65.2949	-0.325651	38	0.582843	0.0704722	-1.66213
2	0	0	1	7336.77	-1.08273	-1.08341	-67.9755	-0.347926	38	0.584197	0.0736454	-1.66761
2	0	0	1	7337.1	-1.08607	-1.08707	-70.7809	-0.371116	38	0.586059	0.0769439	-1.67313
2	0	0	1	7337.43	-1.0894	-1.08952	-73.6949	-0.395262	38	0.587865	0.080292	-1.67738
2	0	0	1	7337.77	-1.09273	-1.09264	-76.8319	-0.420417	38	0.589488	0.0839498	-1.68213
2	0	0	1	7338.1	-1.09607	-1.09638	-80.2276	-0.446663	38	0.591123	0.0879601	-1.68751
2	0	0	1	7338.43	-1.0994	-1.0995	-83.879	-0.474078	38	0.593306	0.0922247	-1.6928
2	0	0	1	7338.77	-1.10273	-1.10193	-87.8004	-0.50276	38	0.595313	0.0967501	-1.69725
2	0	0	1	7339.1	-1.10607	-1.10582	-91.8199	-0.532773	38	0.597162	0.101536	-1.70298
2	0	0	1	7339.43	-1.1094	-1.10976	-95.9649	-0.564149	38	0.599362	0.106498	-1.70912
2	0	0	1	7339.77	-1.11274	-1.11287	-100.132	-0.596912	38	0.601213	0.111433	-1.71408
2	0	0	1	7340.1	-1.11607	-1.11629	-104.333	-0.63107	38	0.60347	0.116466	-1.71976
2	0	0	1	7340.43	-1.1194	-1.11955	-108.464	-0.66662	38	0.605441	0.121431	-1.72499
2	0	0	1	7340.77	-1.12274	-1.12358	-112.382	-0.703498	37	0.607296	0.12627	-1.73088
2	0	0	1	7341.1	-1.12607	-1.12658	-116.446	-0.741716	37	0.609115	0.131186	-1.7357
2	0	0	1	7341.43	-1.1294	-1.12864	-120.505	-0.781279	37	0.611145	0.136006	-1.73978
2	0	0	1	7341.77	-1.13274	-1.13337	-124.448	-0.822188	37	0.612682	0.141046	-1.74605
2	0	0	1	7342.1	-1.13607	-1.13587	-128.42	-0.864412	37	0.614601	0.145868	-1.75047
2	0	0	1	7342.43	-1.13941	-1.1396	-132.428	-0.907968	37	0.616425	0.150914	-1.75602
2	0	0	1	7342.77	-1.14274	-1.14492	-136.511	-0.952872	37	0.618236	0.156295	-1.76316
2	0	0	1	7343.1	-1.14607	-1.14618	-140.428	-0.999109	37	0.619468	0.160956	-1.76565
2	0	0	1	7343.43	-1.14941	-1.14993	-144.279	-1.04662	37	0.621143	0.16591	-1.77107
2	0	0	1	7343.77	-1.15274	-1.15358	-148.185	-1.09544	37	0.623025	0.170943	-1.7766
2	0	0	1	7344.1	-1.15607	-1.15652	-152.032	-1.14555	37	0.624558	0.175828	-1.78108
2	0	0	1	7344.43	-1.15941	-1.15925	-155.724	-1.19693	37	0.626256	0.180523	-1.78551
2	0	0	1	7344.77	-1.16274	-1.16216	-159.496	-1.24954	37	0.627717	0.185361	-1.78988
2	0	0	1	7345.1	-1.16608	-1.16615	-163.389	-1.30344	37	0.629572	0.190537	-1.79572
2	0	0	1	7345.43	-1.16941	-1.17131	-167.123	-1.35861	37	0.631031	0.195753	-1.80234
2	0	0	1	7345.77	-1.17274	-1.17296	-170.978	-1.41502	37	0.632567	0.20055	-1.80553
2	0	0	1	7346.1	-1.17608	-1.17632	-174.672	-1.47271	37	0.634099	0.20547	-1.81042
2	0	0	1	7346.43	-1.17941	-1.17828	-178.492	-1.53163	37	0.635899	0.210313	-1.81417
2	0	0	1	7346.77	-1.18274	-1.18444	-182.497	-1.59188	37	0.637304	0.216157	-1.82175
2	0	0	1	7347.1	-1.18608	-1.18577	-186.527	-1.65347	37	0.638629	0.221178	-1.8244
2	0	0	1	7347.43	-1.18941	-1.18944	-190.509	-1.71639	37	0.639922	0.226598	-1.82936
2	0	0	1	7347.77	-1.19275	-1.19275	-194.455	-1.78064	37	0.641908	0.231936	-1.83466
2	0	0	1	7348.1	-1.19608	-1.19773	-198.456	-1.84621	37	0.643513	0.237697	-1.84124
2	0	0	1	7348.37	-1.19875	-1.20097	-201.555	-1.89949	37	0.64455	0.242061	-1.84552
2	0	0	0	7348.48	-1.19991	-1.20466	-202.835	-1.92147	37	0.643672	0.244348	-1.84833