File: TS-82-25-02-360-100_2024-07-30_clean_NaOH_04_LSV_C01.txt
mode	ox/red	error	control changes	time/s	control/V	Ewe/V	<I>/mA	(Q-Qo)/C	I Range	<Ece>/V	P/W	Ewe-Ece/V
2	0	0	0	123.467	-1.22462	-1.22513	-201.262	-0.00716344	37	0.646035	0.246572	-1.87117
2	0	0	1	124.651	-1.21278	-1.21275	-185.678	-0.235246	37	0.640245	0.225181	-1.85299
2	0	0	1	125.984	-1.19945	-1.20058	-169.424	-0.471566	37	0.634403	0.203406	-1.83498
2	0	0	1	127.318	-1.18611	-1.18778	-153.492	-0.686352	37	0.628215	0.182314	-1.816
2	0	0	1	128.651	-1.17278	-1.17457	-138.223	-0.880363	37	0.621953	0.162353	-1.79653
2	0	0	1	129.985	-1.15944	-1.16031	-123.154	-1.05416	37	0.615705	0.142897	-1.77601
2	0	0	1	131.318	-1.14611	-1.14714	-108.646	-1.20829	37	0.609151	0.124632	-1.75629
2	0	0	1	132.652	-1.13277	-1.13318	-94.5599	-1.34337	37	0.602172	0.107153	-1.73535
2	0	0	1	133.985	-1.11944	-1.12004	-81.011	-1.46001	37	0.595318	0.0907357	-1.71536
2	0	0	1	135.319	-1.1061	-1.10645	-68.0894	-1.55905	37	0.588488	0.0753376	-1.69494
2	0	0	1	136.652	-1.09277	-1.09344	-55.8326	-1.64123	37	0.580799	0.0610497	-1.67424
2	0	0	1	138.002	-1.07927	-1.07933	-44.0426	-1.70819	37	0.573167	0.0475364	-1.65249
2	0	0	1	139.352	-1.06577	-1.06662	-32.55	-1.75953	38	0.563794	0.0347183	-1.63041
2	0	0	1	140.686	-1.05243	-1.05214	-21.5111	-1.79521	38	0.55308	0.0226327	-1.60522
2	0	0	1	142.019	-1.0391	-1.03862	-10.1106	-1.81604	38	0.536963	0.0105011	-1.57559
2	1	0	1	143.386	-1.02543	-1.02526	2.77604	-1.82076	39	0.48758	-0.00284615	-1.51284
2	1	0	1	144.753	-1.01176	-1.01195	14.4233	-1.80833	38	0.361968	-0.0145956	-1.37392
2	1	0	1	146.086	-0.998425	-0.999034	22.2232	-1.78344	38	0.270539	-0.0222017	-1.26957
2	1	0	1	147.42	-0.98509	-0.985782	28.4762	-1.74898	38	-1.00204	-0.0280713	0.0162565
2	1	0	1	148.753	-0.971756	-0.971976	36.6218	-1.70506	38	-1.14356	-0.0355955	0.17158
2	1	0	1	150.087	-0.95842	-0.958865	41.2428	-1.65261	38	-1.13398	-0.0395463	0.175111
2	0	0	0	240.874	-1.22062	-1.22108	-200.875	-0.00715209	37	0.639589	0.245285	-1.86067
2	0	0	1	242.057	-1.20878	-1.20895	-184.671	-0.234482	37	0.633092	0.223258	-1.84204
2	0	0	1	243.391	-1.19545	-1.19615	-167.939	-0.469257	37	0.627104	0.200879	-1.82325
2	0	0	1	244.724	-1.18211	-1.18233	-151.679	-0.682013	37	0.621135	0.179334	-1.80346
2	0	0	1	246.058	-1.16878	-1.16885	-135.715	-0.873252	37	0.614498	0.15863	-1.78334
2	0	0	1	247.391	-1.15544	-1.15428	-120.089	-1.04339	37	0.608515	0.138616	-1.76279
2	0	0	1	248.725	-1.14211	-1.14218	-104.837	-1.19293	37	0.601438	0.119743	-1.74362
2	0	0	1	250.058	-1.12877	-1.12927	-90.4079	-1.32273	37	0.594748	0.102095	-1.72402
2	0	0	1	251.392	-1.11544	-1.11508	-76.4452	-1.43368	37	0.588174	0.0852423	-1.70325
2	0	0	1	252.725	-1.1021	-1.10222	-62.5405	-1.52603	37	0.579527	0.0689336	-1.68175
2	0	0	1	254.059	-1.08877	-1.08901	-50.0357	-1.60072	37	0.571904	0.0544893	-1.66091
2	0	0	1	255.425	-1.0751	-1.07589	-37.973	-1.66052	38	0.563164	0.0408548	-1.63906
2	0	0	1	256.759	-1.06177	-1.06152	-26.5071	-1.70316	38	0.553294	0.0281377	-1.61481
2	0	0	1	258.092	-1.04843	-1.04762	-15.3804	-1.73082	38	0.540938	0.0161127	-1.58855
2	0	0	1	259.443	-1.03493	-1.03557	-3.63701	-1.74343	38	0.516912	0.0037664	-1.55249
2	1	0	1	260.793	-1.02143	-1.02152	8.9737	-1.73944	39	0.427915	-0.00916683	-1.44944
2	1	0	1	262.126	-1.00809	-1.00781	19.5551	-1.71965	38	0.316872	-0.0197078	-1.32468
2	1	0	1	263.46	-0.994757	-0.995594	26.6116	-1.68851	38	0.228667	-0.0264944	-1.22426
2	1	0	1	264.793	-0.981424	-0.984694	32.8003	-1.64929	38	-1.07124	-0.0322982	0.0865462
2	1	0	1	266.127	-0.968087	-0.965828	38.7905	-1.60103	38	-1.09346	-0.037465	0.127627
2	1	0	1	267.46	-0.954754	-0.957625	43.2656	-1.54594	38	-1.10779	-0.0414323	0.150163
2	0	0	1	358.131	-1.21512	-1.21532	-196.78	-0.0432158	37	0.633743	0.239151	-1.84906
2	0	0	1	359.464	-1.20178	-1.20235	-179.584	-0.293568	37	0.627648	0.215923	-1.83
2	0	0	1	360.798	-1.18845	-1.18919	-162.639	-0.521344	37	0.6217	0.193408	-1.81089
2	0	0	1	362.131	-1.17511	-1.17529	-146.201	-0.726752	37	0.615274	0.171829	-1.79056
2	0	0	1	363.465	-1.16178	-1.16201	-129.915	-0.910412	37	0.608955	0.150963	-1.77097
2	0	0	1	364.798	-1.14844	-1.14923	-114.134	-1.07278	37	0.602301	0.131167	-1.75153
2	0	0	1	366.131	-1.13511	-1.13658	-98.7214	-1.21428	37	0.595157	0.112205	-1.73174
2	0	0	1	367.465	-1.12177	-1.12185	-83.9866	-1.33566	37	0.588181	0.0942205	-1.71003
2	0	0	1	368.798	-1.10844	-1.10755	-69.9734	-1.43788	37	0.580652	0.0774992	-1.68821
2	0	0	1	370.132	-1.0951	-1.09536	-56.6253	-1.52181	37	0.572908	0.0620248	-1.66826
2	0	0	1	371.482	-1.0816	-1.0821	-43.9763	-1.58919	37	0.564656	0.047587	-1.64676
2	0	0	1	372.832	-1.0681	-1.06844	-31.8187	-1.63996	38	0.555202	0.0339965	-1.62365
2	0	0	1	374.166	-1.05476	-1.056	-20.334	-1.67431	38	0.543773	0.0214727	-1.59978
2	0	0	1	375.499	-1.04143	-1.04136	-8.7887	-1.69339	38	0.527003	0.00915223	-1.56837
2	1	0	1	376.866	-1.02776	-1.02898	3.96127	-1.69645	39	0.474918	-0.00407607	-1.5039
2	1	0	1	378.233	-1.01409	-1.0158	16.2262	-1.68219	38	0.349692	-0.0164825	-1.36549
2	1	0	1	379.566	-1.00076	-1.00204	23.8657	-1.65461	38	0.268741	-0.0239143	-1.27078
2	1	0	1	380.9	-0.987424	-0.987644	28.9489	-1.61852	38	-0.877524	-0.0285912	-0.110119
2	1	0	1	382.233	-0.974088	-0.97407	36.3964	-1.57422	38	-1.0783	-0.0354526	0.10423
2	1	0	1	383.567	-0.960755	-0.962478	41.1451	-1.52211	38	-1.09599	-0.0396013	0.133512
2	1	0	0	384.626	-0.949919	-0.950147	45.2325	-1.47655	38	-1.10622	-0.0429775	0.156078
2	0	0	1	475.504	-1.20511	-1.20586	-187.948	-0.171322	37	0.62827	0.226639	-1.83413
2	0	0	1	476.837	-1.19178	-1.19229	-170.161	-0.409609	37	0.622236	0.202882	-1.81453
2	0	0	1	478.171	-1.17845	-1.17878	-153.242	-0.624769	37	0.616162	0.180639	-1.79494
2	0	0	1	479.504	-1.16511	-1.165	-136.437	-0.817414	37	0.609315	0.15895	-1.77432
2	0	0	1	480.838	-1.15178	-1.15207	-120.207	-0.988003	37	0.60274	0.138487	-1.75481
2	0	0	1	482.171	-1.13844	-1.13837	-104.468	-1.13733	37	0.595488	0.118923	-1.73385
2	0	0	1	483.505	-1.12511	-1.12525	-89.3083	-1.26604	37	0.588785	0.100494	-1.71403
2	0	0	1	484.838	-1.11177	-1.11233	-75.0025	-1.37515	37	0.581529	0.0834276	-1.69386
2	0	0	1	486.172	-1.09844	-1.09894	-61.0432	-1.46538	37	0.573656	0.0670828	-1.6726
2	0	0	1	487.505	-1.0851	-1.08558	-47.9235	-1.53757	37	0.56549	0.0520246	-1.65107
2	0	0	1	488.872	-1.07143	-1.07274	-35.3443	-1.59405	38	0.556041	0.0379154	-1.62878
2	0	0	1	490.206	-1.0581	-1.05886	-23.4572	-1.63281	38	0.544958	0.0248379	-1.60382
2	0	0	1	491.539	-1.04476	-1.04543	-11.8053	-1.65593	38	0.530247	0.0123416	-1.57568
2	0	0	1	492.906	-1.03109	-1.0317	0.944099	-1.66311	39	0.493547	-0.000974022	-1.52524
2	1	0	1	494.273	-1.01743	-1.01689	13.5452	-1.65269	38	0.378912	-0.013774	-1.3958
2	1	0	1	495.606	-1.00409	-1.00527	22.1755	-1.62774	38	0.28651	-0.0222924	-1.29178
2	1	0	1	496.94	-0.990757	-0.990865	28.3003	-1.59392	38	0.195963	-0.0280418	-1.18683
2	1	0	1	498.273	-0.977423	-0.977356	34.3933	-1.55245	38	-1.06785	-0.0336145	0.0904931
2	1	0	1	499.607	-0.964088	-0.965512	39.6853	-1.50251	38	-1.08766	-0.0383167	0.122152
2	1	0	1	500.89	-0.951253	-0.953098	43.9643	-1.4486	38	-1.10028	-0.0419023	0.147177
2	0	0	1	590.544	-1.20345	-1.20383	-186.525	-0.105249	37	0.626143	0.224544	-1.82997
2	0	0	1	591.877	-1.19011	-1.18998	-168.915	-0.341671	37	0.619826	0.201005	-1.8098
2	0	0	1	593.211	-1.17678	-1.17687	-151.687	-0.555039	37	0.613529	0.178516	-1.7904
2	0	0	1	594.544	-1.16344	-1.16301	-134.994	-0.745595	37	0.607269	0.156999	-1.77028
2	0	0	1	595.877	-1.15011	-1.15083	-118.426	-0.914085	37	0.600596	0.136288	-1.75142
2	0	0	1	597.211	-1.13677	-1.13638	-102.692	-1.06106	37	0.593426	0.116697	-1.7298
2	0	0	1	598.544	-1.12344	-1.12444	-87.4206	-1.18741	37	0.586439	0.0982993	-1.71088
2	0	0	1	599.878	-1.1101	-1.10987	-72.9588	-1.29393	37	0.578757	0.0809748	-1.68863
2	0	0	1	601.211	-1.09677	-1.09717	-59.2195	-1.38153	37	0.571081	0.0649741	-1.66825
2	0	0	1	602.545	-1.08343	-1.08408	-46.1404	-1.45128	37	0.562739	0.0500199	-1.64682
2	0	0	1	603.912	-1.06977	-1.06971	-33.6397	-1.50547	38	0.553138	0.0359848	-1.62285
2	0	0	1	605.245	-1.05643	-1.05664	-21.8218	-1.54201	38	0.541895	0.0230577	-1.59853
2	0	0	1	606.579	-1.0431	-1.04263	-10.0583	-1.56293	38	0.525847	0.0104871	-1.56848
2	1	0	1	607.946	-1.02943	-1.02941	2.77902	-1.56767	39	0.481811	-0.00286076	-1.51122
2	1	0	1	609.279	-1.01609	-1.01543	14.9745	-1.55544	38	0.365136	-0.0152056	-1.38057
2	1	0	1	610.613	-1.00276	-1.0023	22.6754	-1.52928	38	0.282466	-0.0227277	-1.28477
2	1	0	1	611.946	-0.989424	-0.989633	28.3751	-1.49511	38	0.205639	-0.028081	-1.19527
2	1	0	1	613.279	-0.976089	-0.976745	34.4652	-1.45346	38	-1.06691	-0.0336638	0.0901684
2	1	0	1	614.613	-0.962754	-0.96178	39.667	-1.4035	38	-1.0869	-0.0381509	0.125116
2	1	0	1	615.83	-0.950586	-0.948732	43.7551	-1.35254	38	-1.09887	-0.0415118	0.15014
2	1	0	1	615.872	-0.949919	-0.948462	44.5778	-1.35068	38	-1.1007	-0.0422803	0.152239