File: TS-82-25-02-30-100_2024-07-23_clean_NaOH_04_LSV_C01.txt
mode	ox/red	error	control changes	time/s	control/V	Ewe/V	<I>/mA	(Q-Qo)/C	I Range	<Ece>/V	P/W	Ewe-Ece/V
2	0	0	1	123.591	-1.2846	-1.27856	-196.886	-0.00700508	37	0.656263	0.25173	-1.93482
2	0	0	1	125.108	-1.26943	-1.27293	-178.62	-0.29143	37	0.648269	0.22737	-1.9212
2	0	0	1	126.775	-1.25276	-1.25301	-159.591	-0.572749	37	0.640721	0.199969	-1.89373
2	0	0	1	128.442	-1.23609	-1.23505	-141.867	-0.823421	37	0.633747	0.175213	-1.8688
2	0	0	1	130.109	-1.21943	-1.21879	-125.285	-1.04554	37	0.625637	0.152696	-1.84442
2	0	0	1	131.775	-1.20276	-1.20217	-109.841	-1.24104	37	0.61801	0.132047	-1.82018
2	0	0	1	133.442	-1.18609	-1.18529	-95.2168	-1.4114	37	0.610825	0.11286	-1.79612
2	0	0	1	135.109	-1.16942	-1.17278	-81.4568	-1.55823	37	0.603811	0.095531	-1.77659
2	0	0	1	136.776	-1.15275	-1.15503	-68.4508	-1.68276	37	0.595613	0.0790626	-1.75064
2	0	0	1	138.443	-1.13608	-1.13546	-56.3968	-1.78639	37	0.588172	0.0640364	-1.72363
2	0	0	1	140.126	-1.11925	-1.12071	-45.0724	-1.87141	37	0.579404	0.0505131	-1.70011
2	0	0	1	141.81	-1.10241	-1.10163	-34.9039	-1.93839	38	0.57085	0.0384513	-1.67248
2	0	0	1	143.477	-1.08574	-1.08787	-26.0912	-1.98887	38	0.562475	0.0283837	-1.65034
2	0	0	1	145.144	-1.06908	-1.06998	-18.5225	-2.02563	38	0.553546	0.0198187	-1.62353
2	0	0	1	146.811	-1.05241	-1.05917	-11.1306	-2.05009	38	0.54197	0.0117892	-1.60114
2	0	0	1	148.511	-1.0354	-1.03989	-2.85148	-2.06192	39	0.519064	0.00296522	-1.55895
2	1	0	1	150.178	-1.01874	-1.01837	8.1556	-2.0573	39	0.406668	-0.00830543	-1.42504
2	1	0	1	151.844	-1.00207	-1.00609	7.01522	-2.04255	39	0.326608	-0.00705792	-1.3327
2	1	0	1	153.511	-0.985399	-0.985065	6.54261	-2.03147	39	0.296652	-0.0064449	-1.28172
2	1	0	1	155.178	-0.968731	-0.968364	8.40584	-2.01896	39	0.259336	-0.00813991	-1.2277
2	1	0	1	156.878	-0.951729	-0.952778	12.0603	-2.00135	38	0.161805	-0.0114908	-1.11458
2	0	0	1	251.682	-1.27777	-1.27926	-194.339	-0.176774	37	0.647763	0.248611	-1.92703
2	0	0	1	253.349	-1.2611	-1.2612	-174.05	-0.483336	37	0.639976	0.219512	-1.90118
2	0	0	1	255.016	-1.24443	-1.24576	-155.237	-0.757249	37	0.632517	0.193388	-1.87828
2	0	0	1	256.682	-1.22776	-1.22647	-137.13	-1.00043	37	0.625059	0.168185	-1.85153
2	0	0	1	258.349	-1.21109	-1.20959	-120.458	-1.21466	37	0.618126	0.145705	-1.82771
2	0	0	1	260.016	-1.19442	-1.19411	-104.671	-1.40195	37	0.610668	0.124988	-1.80477
2	0	0	1	261.683	-1.17776	-1.1779	-89.8004	-1.56364	37	0.603075	0.105776	-1.78098
2	0	0	1	263.35	-1.16109	-1.1659	-75.7586	-1.70128	37	0.595265	0.0883267	-1.76116
2	0	0	1	265.017	-1.14442	-1.1477	-62.4384	-1.81601	37	0.587135	0.0716602	-1.73483
2	0	0	1	266.684	-1.12775	-1.13107	-49.9322	-1.90918	37	0.578996	0.0564768	-1.71006
2	0	0	1	268.384	-1.11075	-1.10889	-38.3655	-1.98378	38	0.570215	0.042543	-1.6791
2	0	0	1	270.051	-1.09408	-1.09111	-28.392	-2.03897	38	0.560748	0.0309788	-1.65186
2	0	0	1	271.718	-1.07741	-1.08116	-19.6955	-2.07855	38	0.550722	0.021294	-1.63189
2	0	0	1	273.384	-1.06074	-1.06149	-11.9838	-2.10459	38	0.539221	0.0127207	-1.60071
2	0	0	1	275.068	-1.04391	-1.03794	-4.49715	-2.11808	38	0.520645	0.00466776	-1.55858
2	1	0	1	276.751	-1.02707	-1.03113	5.05609	-2.11801	39	0.44873	-0.00521348	-1.47986
2	1	0	1	278.452	-1.01007	-1.00972	11.0466	-2.10067	38	0.315159	-0.011154	-1.32488
2	1	0	1	280.119	-0.9934	-0.994099	6.58616	-2.08713	38	0.285823	-0.00654729	-1.27992
2	1	0	1	281.785	-0.976732	-0.978758	7.56852	-2.07536	38	0.260275	-0.00740774	-1.23903
2	1	0	1	283.452	-0.960064	-0.962203	10.5765	-2.06022	38	0.1827	-0.0101768	-1.1449
2	0	0	0	379.106	-1.27193	-1.27285	-196.295	-0.00698967	37	0.644434	0.249854	-1.91728
2	0	0	1	380.623	-1.25676	-1.25829	-178.212	-0.290775	37	0.638282	0.224242	-1.89657
2	0	0	1	382.29	-1.24009	-1.23881	-158.947	-0.57137	37	0.630797	0.196905	-1.86961
2	0	0	1	383.957	-1.22343	-1.2235	-140.614	-0.820574	37	0.623254	0.172041	-1.84676
2	0	0	1	385.623	-1.20676	-1.20636	-123.401	-1.04013	37	0.615626	0.148866	-1.82198
2	0	0	1	387.29	-1.19009	-1.1909	-106.81	-1.23153	37	0.60776	0.1272	-1.79866
2	0	0	1	388.957	-1.17342	-1.17484	-91.0546	-1.39601	37	0.600059	0.106975	-1.7749
2	0	0	1	390.624	-1.15675	-1.15931	-75.9619	-1.53475	37	0.592262	0.0880635	-1.75157
2	0	0	1	392.291	-1.14008	-1.14031	-61.7531	-1.64895	37	0.583689	0.0704178	-1.724
2	0	0	1	393.958	-1.12341	-1.12447	-48.5443	-1.74028	37	0.574677	0.0545864	-1.69914
2	0	0	1	395.658	-1.10641	-1.1084	-36.433	-1.81189	38	0.564889	0.0403822	-1.67329
2	0	0	1	397.325	-1.08974	-1.08978	-25.8411	-1.86316	38	0.554821	0.028161	-1.6446
2	0	0	1	398.992	-1.07308	-1.07287	-16.8203	-1.89812	38	0.543762	0.018046	-1.61663
2	0	0	1	400.658	-1.05641	-1.0571	-8.67434	-1.91885	38	0.530194	0.00916961	-1.58729
2	0	0	1	402.359	-1.03941	-1.04097	-1.18803	-1.9269	39	0.504091	0.0012367	-1.54506
2	1	0	1	404.042	-1.02257	-1.02264	9.83109	-1.91994	39	0.390628	-0.0100536	-1.41327
2	1	0	1	405.726	-1.00573	-1.00274	9.34108	-1.89966	38	0.295909	-0.00936667	-1.29865
2	1	0	1	407.393	-0.989066	-0.98963	7.01094	-1.88673	38	0.276241	-0.00693823	-1.26587
2	1	0	1	409.059	-0.972399	-0.969541	8.5578	-1.87375	38	0.251202	-0.00829714	-1.22074
2	1	0	1	410.726	-0.955729	-0.955921	11.9759	-1.85655	38	-0.166909	-0.0114481	-0.789012
2	0	0	1	505.663	-1.26877	-1.26914	-200.631	-0.0440773	37	0.642089	0.254629	-1.91123
2	0	0	1	507.33	-1.2521	-1.25263	-180.583	-0.36118	37	0.634934	0.226203	-1.88756
2	0	0	1	508.997	-1.23543	-1.23671	-161.41	-0.645554	37	0.627896	0.199617	-1.8646
2	0	0	1	510.664	-1.21876	-1.21901	-143.005	-0.898611	37	0.621004	0.174324	-1.84001
2	0	0	1	512.331	-1.20209	-1.20249	-125.392	-1.12167	37	0.612897	0.150782	-1.81538
2	0	0	1	513.997	-1.18542	-1.1866	-108.306	-1.31583	37	0.605005	0.128517	-1.79161
2	0	0	1	515.664	-1.16875	-1.1692	-91.7998	-1.482	37	0.597373	0.107332	-1.76657
2	0	0	1	517.331	-1.15209	-1.15192	-76.0844	-1.62136	37	0.588518	0.0876427	-1.74043
2	0	0	1	518.998	-1.13542	-1.138	-61.1537	-1.73519	37	0.580444	0.0695932	-1.71845
2	0	0	1	520.665	-1.11875	-1.12014	-47.5395	-1.82527	37	0.570645	0.0532511	-1.69079
2	0	0	1	522.365	-1.10175	-1.09839	-34.951	-1.89485	38	0.560846	0.0383899	-1.65924
2	0	0	1	524.032	-1.08508	-1.08543	-24.103	-1.94354	38	0.550065	0.026162	-1.63549
2	0	0	1	525.699	-1.06841	-1.06831	-14.7311	-1.97544	38	0.538264	0.0157375	-1.60658
2	0	0	1	527.366	-1.05174	-1.05263	-6.57427	-1.99268	38	0.522285	0.00692028	-1.57492
2	1	0	1	529.066	-1.03474	-1.03566	1.45817	-1.99713	39	0.482971	-0.00151016	-1.51863
2	1	0	1	530.733	-1.01807	-1.01909	13.1728	-1.98455	38	0.34134	-0.0134242	-1.36043
2	1	0	1	532.4	-1.0014	-1.00136	7.73935	-1.96593	38	0.29002	-0.00774987	-1.29138
2	1	0	1	534.066	-0.984733	-0.984812	7.06802	-1.95393	38	0.272951	-0.00696067	-1.25776
2	1	0	1	535.733	-0.968064	-0.967872	9.29401	-1.94028	38	0.246073	-0.00899541	-1.21394
2	1	0	1	537.383	-0.951562	-0.948896	13.054	-1.92178	38	-0.763129	-0.0123869	-0.185766
2	0	0	1	632.537	-1.25676	-1.25898	-195.331	-0.177701	37	0.639938	0.245917	-1.89891
2	0	0	1	634.204	-1.2401	-1.24077	-175.519	-0.486268	37	0.633046	0.217778	-1.87381
2	0	0	1	635.871	-1.22343	-1.22298	-156.099	-0.762139	37	0.625212	0.190906	-1.84819
2	0	0	1	637.538	-1.20676	-1.20695	-137.486	-1.00644	37	0.617148	0.16594	-1.8241
2	0	0	1	639.205	-1.19009	-1.1913	-119.393	-1.22012	37	0.609616	0.142233	-1.80092
2	0	0	1	640.872	-1.17342	-1.17367	-101.904	-1.40415	37	0.601324	0.119603	-1.775
2	0	0	1	642.538	-1.15675	-1.1588	-84.913	-1.55945	37	0.592672	0.098397	-1.75147
2	0	0	1	644.205	-1.14008	-1.13866	-68.954	-1.68717	37	0.583992	0.0785148	-1.72265
2	0	0	1	645.872	-1.12342	-1.12064	-54.057	-1.78919	37	0.574254	0.0605784	-1.69489
2	0	0	1	647.572	-1.10641	-1.10495	-40.2981	-1.86883	38	0.564394	0.0445273	-1.66934
2	0	0	1	649.239	-1.08975	-1.09107	-28.2034	-1.92532	38	0.553148	0.0307718	-1.64421
2	0	0	1	650.906	-1.07308	-1.0732	-17.6554	-1.96293	38	0.541186	0.0189478	-1.61439
2	0	0	1	652.573	-1.05641	-1.05698	-8.67724	-1.98422	38	0.526286	0.00917167	-1.58327
2	0	0	1	654.273	-1.0394	-1.04031	-0.946857	-1.99212	39	0.49986	0.000985024	-1.54017
2	1	0	1	655.957	-1.02257	-1.02249	10.7793	-1.98417	39	0.38085	-0.0110217	-1.40334
2	1	0	1	657.64	-1.00574	-1.00698	9.16173	-1.96345	38	0.294451	-0.00922566	-1.30143
2	1	0	1	659.307	-0.989067	-0.98959	6.95193	-1.95065	38	0.278992	-0.00687956	-1.26858
2	1	0	1	660.974	-0.972397	-0.972709	8.61576	-1.93762	38	0.259442	-0.00838063	-1.23215
2	1	0	1	662.641	-0.955729	-0.956147	11.6833	-1.92039	38	0.00389477	-0.0111709	-0.960042
2	0	0	1	757.411	-1.26176	-1.26266	-207.59	-0.045652	37	0.641779	0.262116	-1.90444
2	0	0	1	759.078	-1.2451	-1.24388	-187.148	-0.374005	37	0.634527	0.23279	-1.87841
2	0	0	1	760.745	-1.22843	-1.22897	-167.377	-0.668908	37	0.627516	0.205701	-1.85648
2	0	0	1	762.412	-1.21176	-1.21071	-148.219	-0.931551	37	0.619478	0.17945	-1.83019
2	0	0	1	764.079	-1.19509	-1.19626	-129.48	-1.1624	37	0.6121	0.154892	-1.80836
2	0	0	1	765.745	-1.17842	-1.18087	-111.286	-1.36253	37	0.603969	0.131414	-1.78484
2	0	0	1	767.412	-1.16175	-1.16231	-93.6975	-1.53296	37	0.595817	0.108906	-1.75813
2	0	0	1	769.079	-1.14508	-1.14408	-76.8389	-1.67464	37	0.586544	0.0879098	-1.73062
2	0	0	1	770.746	-1.12842	-1.12864	-60.8111	-1.78882	37	0.577126	0.0686336	-1.70576
2	0	0	1	772.413	-1.11175	-1.11234	-46.0656	-1.87737	37	0.567302	0.0512408	-1.67965
2	0	0	1	774.113	-1.09475	-1.09458	-32.531	-1.94361	38	0.556067	0.0356076	-1.65064
2	0	0	1	775.78	-1.07808	-1.07668	-21.0441	-1.98773	38	0.544499	0.0226577	-1.62118
2	0	0	1	777.447	-1.06141	-1.06395	-11.1156	-2.01405	38	0.530205	0.0118264	-1.59415
2	0	0	1	779.147	-1.04441	-1.04264	-3.07143	-2.02561	39	0.509334	0.0032024	-1.55198
2	1	0	1	780.814	-1.02774	-1.02978	7.07017	-2.02277	39	0.426851	-0.00728073	-1.45663
2	1	0	1	782.481	-1.01107	-1.0113	12.7327	-2.00235	38	0.299907	-0.0128765	-1.3112
2	1	0	1	784.148	-0.9944	-0.994865	7.22073	-1.98709	38	0.282601	-0.00718365	-1.27747
2	1	0	1	785.814	-0.977732	-0.977925	7.9321	-1.97458	38	0.265996	-0.007757	-1.24392
2	1	0	1	787.481	-0.961063	-0.961758	10.6091	-1.95896	38	0.212124	-0.0102034	-1.17388
2	1	0	0	788.571	-0.949895	-0.943144	13.5913	-1.94606	38	-0.78633	-0.0128185	-0.156814