File: TS-82-25-08-30-800_2024-08-22_C01.txt
mode	error	time/s	<Ewe/V>
3	1	0.5	-0.422753
3	0	10	-0.423863
3	0	19.5	-0.426528
3	0	29	-0.429499
3	0	38.5	-0.432444
3	0	48	-0.433523
3	0	57.5	-0.435367
3	0	67	-0.437816
3	0	76.5	-0.439929
3	0	86	-0.44184
3	0	95.5	-0.443528
3	0	105	-0.445017
3	0	114.5	-0.446301
3	0	124	-0.447437
3	0	133.5	-0.448477
3	0	143	-0.449398
3	0	152.5	-0.450207
3	0	162	-0.450952
3	0	171.5	-0.451634
3	0	181	-0.452201
3	0	190.5	-0.452748
3	0	200	-0.453236
3	0	209.5	-0.453683
3	0	219	-0.454101
3	0	228.5	-0.454475
3	0	238	-0.454826
3	0	247.5	-0.455152
3	0	257	-0.455402
3	0	266.5	-0.455657
3	0	276	-0.455892
3	0	285.5	-0.456113
3	0	295	-0.455327
3	0	304.5	-0.455019
3	0	314	-0.455274
3	0	323.5	-0.455464
3	0	333	-0.455686
3	0	342.5	-0.455881
3	0	352	-0.456077
3	0	361.5	-0.456288
3	0	371	-0.456502
3	0	380.5	-0.456706
3	0	390	-0.456923
3	0	399.5	-0.457135
3	0	409	-0.45733
3	0	418.5	-0.457472
3	0	428	-0.457618
3	0	437.5	-0.457694
3	0	447	-0.457691
3	0	456.5	-0.457789
3	0	466	-0.457905
3	0	475.5	-0.457991
3	0	485	-0.45809
3	0	494.5	-0.458203
3	0	504	-0.458347
3	0	513.5	-0.458473
3	0	523	-0.458601
3	0	532.5	-0.458733
3	0	542	-0.458868
3	0	551.5	-0.458987
3	0	561	-0.45909
3	0	570.5	-0.459225
3	0	580	-0.459345
3	0	589.5	-0.459484
3	0	599	-0.459607
3	0	608.5	-0.459732
3	0	618	-0.459885
3	0	627.5	-0.460024
3	0	637	-0.46014
3	0	646.5	-0.460178
3	0	656	-0.460285
3	0	665.5	-0.46042
3	0	675	-0.460489
3	0	684.5	-0.460556
3	0	694	-0.460654
3	0	703.5	-0.460766
3	0	713	-0.460868
3	0	722.5	-0.460909
3	0	732	-0.461043
3	0	741.5	-0.461166
3	0	751	-0.461279
3	0	760.5	-0.461356
3	0	770	-0.461555
3	0	779.5	-0.461485
3	0	789	-2.6097
3	0	798.5	-2.85895
3	0	808	-2.73825
3	0	817.5	-2.77698
3	0	827	-2.69958
3	0	836.5	-2.54616
3	0	846	-2.40648
3	0	855.5	-2.38314
3	0	865	-2.26194
3	0	874.5	-2.27042
3	0	884	-2.1004
3	0	893.5	-2.17683
3	0	903	-2.12447
3	0	912.5	-2.0688
3	0	922	-2.14214
3	0	931.5	-2.07909
3	0	941	-2.01993
3	0	950.5	-1.98174
3	0	960	-2.01021
3	0	969.5	-2.08253
3	0	979	-2.07788
3	0	988.5	-2.02613
3	0	998	-2.11867
3	0	1007.5	-2.09352
3	0	1017	-2.0996
3	0	1026.5	-2.08619
3	0	1036	-1.97725
3	0	1045.5	-2.05153
3	0	1055	-1.98705
3	0	1064.5	-2.06808
3	0	1074	-2.03118
3	0	1083.5	-2.02972
3	0	1093	-1.99462
3	0	1102.5	-2.00974
3	0	1112	-2.01689
3	0	1121.5	-1.98304
3	0	1131	-2.00294
3	0	1140.5	-1.90233
3	0	1150	-2.0565
3	0	1159.5	-2.05067
3	0	1169	-2.00017
3	0	1178.5	-2.03755
3	0	1188	-2.05791
3	0	1197.5	-2.0411
3	0	1207	-2.0787
3	0	1216.5	-2.02939
3	0	1226	-2.04196
3	0	1235.5	-2.06282
3	0	1245	-2.02688
3	0	1254.5	-1.98181
3	0	1264	-2.05758
3	0	1273.5	-2.03849
3	0	1283	-2.03787
3	0	1292.5	-2.01877
3	0	1302	-2.01846
3	0	1311.5	-2.00786
3	0	1321	-1.92788
3	0	1330.5	-2.03803
3	0	1340	-2.0184
3	0	1349.5	-2.02592
3	0	1359	-2.03013
3	0	1368.5	-2.00829
3	0	1378	-2.01855
3	0	1387.5	-2.02829
3	0	1397	-2.00654
3	0	1406.5	-1.97941
3	0	1416	-2.04309
3	0	1425.5	-2.02564
3	0	1435	-2.00472
3	0	1444.5	-2.01441
3	0	1454	-1.9969
3	0	1463.5	-2.01237
3	0	1473	-2.01572
3	0	1482.5	-2.0592
3	0	1492	-2.01494
3	0	1501.5	-2.02044
3	0	1511	-1.99977
3	0	1520.5	-2.01586
3	0	1530	-2.02698
3	0	1539.5	-1.98719
3	0	1549	-2.04015
3	0	1558.5	-1.98491
3	0	1568	-2.00911
3	0	1577.5	-2.04746
3	0	1587	-1.99488
3	0	1596.5	-2.007
3	0	1606	-1.99573
3	0	1615.5	-1.96743
3	0	1625	-2.01729
3	0	1634.5	-2.00779
3	0	1644	-2.00782
3	0	1653.5	-2.03026
3	0	1663	-2.00725
3	0	1672.5	-2.01256
3	0	1682	-2.01309
3	0	1691.5	-2.02197
3	0	1701	-2.02544
3	0	1710.5	-2.01627
3	0	1720	-2.00059
3	0	1729.5	-2.01359
3	0	1739	-2.01814
3	0	1748.5	-1.99055
3	0	1758	-2.00369
3	0	1767.5	-1.99194
3	0	1777	-2.00263
3	0	1786.5	-2.00452
3	0	1796	-2.02777
3	0	1805.5	-2.01584
3	0	1815	-2.03478
3	0	1824.5	-1.98899
3	0	1834	-2.03197
3	0	1843.5	-2.03343
3	0	1853	-2.00683
3	0	1862.5	-2.00342
3	0	1872	-2.00449
3	0	1881.5	-2.02228
3	0	1891	-2.02723
3	0	1900.5	-2.02605
3	0	1910	-2.01588
3	0	1919.5	-1.98961
3	0	1929	-1.9894
3	0	1938.5	-1.9962
3	0	1948	-1.99642
3	0	1957.5	-1.98881
3	0	1967	-1.96506
3	0	1976.5	-1.98461
3	0	1986	-2.02016
3	0	1995.5	-1.95425
3	0	2005	-1.99143
3	0	2014.5	-2.00694
3	0	2024	-1.97983
3	0	2033.5	-1.97875
3	0	2043	-2.01847
3	0	2052.5	-1.99153
3	0	2062	-2.00912
3	0	2071.5	-2.00446
3	0	2081	-1.96635
3	0	2090.5	-1.97212
3	0	2100	-1.95426
3	0	2109.5	-1.9777
3	0	2119	-1.98594
3	0	2128.5	-2.03285
3	0	2138	-1.98947
3	0	2147.5	-1.96286
3	0	2157	-2.01075
3	0	2166.5	-1.96442
3	0	2176	-2.0106
3	0	2185.5	-1.98496
3	0	2195	-1.99564
3	0	2204.5	-1.97031
3	0	2214	-1.97375
3	0	2223.5	-1.94505
3	0	2233	-1.95892
3	0	2242.5	-1.97246
3	0	2252	-1.96946
3	0	2261.5	-1.96157
3	0	2271	-1.9434
3	0	2280.5	-1.92844
3	0	2290	-1.97562
3	0	2299.5	-1.99311
3	0	2309	-1.94893
3	0	2318.5	-1.99212
3	0	2328	-1.9681
3	0	2337.5	-1.97889
3	0	2347	-1.97604
3	0	2356.5	-1.93352
3	0	2366	-1.97314
3	0	2375.5	-1.96821
3	0	2385	-1.96683
3	0	2394.5	-1.94764
3	0	2404	-1.96616
3	0	2413.5	-1.95038
3	0	2423	-1.95481
3	0	2432.5	-1.98079
3	0	2442	-1.9426
3	0	2451.5	-1.92352
3	0	2461	-1.94412
3	0	2470.5	-1.97344
3	0	2480	-1.93334
3	0	2489.5	-1.95485
3	0	2499	-1.95914
3	0	2508.5	-1.96821
3	0	2518	-1.97279
3	0	2527.5	-1.97885
3	0	2537	-1.95842
3	0	2546.5	-1.97596
3	0	2556	-1.93421
3	0	2565.5	-1.93396
3	0	2575	-1.96747
3	0	2584.5	-1.02965
3	0	2594	-1.01209
3	0	2603.5	-1.0019
3	0	2613	-0.995996
3	0	2622.5	-0.992097
3	0	2632	-0.989251
3	0	2641.5	-0.987159
3	0	2651	-0.985582
3	0	2660.5	-0.984343
3	0	2670	-0.983314
3	0	2679.5	-0.982449
3	0	2689	-0.981723
3	0	2698.5	-0.981076
3	0	2704.95	-0.980322