File: TS-82-25-02-60-100_2024-07-22_clean_NaOH_2_04_LSV_C01.txt
mode	ox/red	error	control changes	time/s	control/V	Ewe/V	<I>/mA	(Q-Qo)/C	I Range	<Ece>/V	P/W	Ewe-Ece/V
2	0	0	0	123.592	-1.25527	-1.25879	-202.986	-0.00721938	37	0.649143	0.255517	-1.90793
2	0	0	1	124.776	-1.24344	-1.24187	-188.742	-0.238125	37	0.64403	0.234392	-1.8859
2	0	0	1	126.109	-1.23011	-1.23072	-173.479	-0.479359	37	0.638396	0.213505	-1.86911
2	0	0	1	127.443	-1.21677	-1.22203	-157.971	-0.699974	37	0.632222	0.193045	-1.85425
2	0	0	1	128.776	-1.20343	-1.20441	-143.097	-0.900404	37	0.626814	0.172348	-1.83122
2	0	0	1	130.11	-1.1901	-1.18852	-128.557	-1.08117	37	0.620103	0.152793	-1.80862
2	0	0	1	131.443	-1.17677	-1.18188	-114.365	-1.24272	37	0.614152	0.135166	-1.79603
2	0	0	1	132.777	-1.16343	-1.16252	-100.705	-1.38575	37	0.607734	0.117072	-1.77026
2	0	0	1	134.11	-1.1501	-1.14966	-87.535	-1.51092	37	0.601132	0.100636	-1.75079
2	0	0	1	135.444	-1.13676	-1.13601	-75.2146	-1.61906	37	0.59418	0.0854444	-1.73019
2	0	0	1	136.777	-1.12343	-1.1233	-63.6655	-1.71135	37	0.58766	0.0715157	-1.71096
2	0	0	1	138.111	-1.11009	-1.11148	-52.71	-1.78862	37	0.580314	0.0585861	-1.69179
2	0	0	1	139.477	-1.09642	-1.09497	-42.5475	-1.85332	38	0.572939	0.0465881	-1.66791
2	0	0	1	140.811	-1.08309	-1.08238	-33.2634	-1.90356	38	0.564925	0.0360036	-1.6473
2	0	0	1	142.144	-1.06975	-1.06939	-24.795	-1.942	38	0.556299	0.0265156	-1.62569
2	0	0	1	143.478	-1.05642	-1.05803	-16.6768	-1.96937	38	0.546955	0.0176445	-1.60498
2	0	0	1	144.811	-1.04308	-1.04404	-8.51478	-1.98598	38	0.532831	0.00888976	-1.57687
2	1	0	1	146.178	-1.02941	-1.03141	1.37772	-1.99089	39	0.497401	-0.00142099	-1.52881
2	1	0	1	147.545	-1.01575	-1.01973	11.2628	-1.98152	38	0.384437	-0.011485	-1.40417
2	1	0	1	148.878	-1.00241	-1.00314	12.5222	-1.96489	38	0.308911	-0.0125615	-1.31205
2	1	0	1	150.212	-0.989077	-0.988378	13.6257	-1.94745	38	0.268247	-0.0134673	-1.25663
2	1	0	1	151.545	-0.975743	-0.976807	15.5508	-1.92767	38	0.185233	-0.0151902	-1.16204
2	1	0	1	152.879	-0.962407	-0.961944	16.8433	-1.9061	38	-0.826781	-0.0162023	-0.135164
2	1	0	1	154.079	-0.950406	-0.950749	19.1087	-1.88447	38	-0.964953	-0.0181676	0.0142036
2	0	0	1	248.249	-1.24777	-1.24868	-196.036	-0.110047	37	0.639398	0.244785	-1.88807
2	0	0	1	249.583	-1.23444	-1.23503	-179.222	-0.35976	37	0.633521	0.221345	-1.86855
2	0	0	1	250.916	-1.2211	-1.22123	-162.751	-0.58737	37	0.627565	0.198756	-1.84879
2	0	0	1	252.25	-1.20777	-1.208	-147.069	-0.793569	37	0.62107	0.177659	-1.82907
2	0	0	1	253.583	-1.19443	-1.19552	-131.845	-0.979227	37	0.615311	0.157623	-1.81083
2	0	0	1	254.917	-1.1811	-1.18053	-117.088	-1.14489	37	0.608486	0.138226	-1.78901
2	0	0	1	256.25	-1.16777	-1.16881	-102.79	-1.29111	37	0.602071	0.120142	-1.77089
2	0	0	1	257.584	-1.15443	-1.15508	-89.1125	-1.41879	37	0.595172	0.102932	-1.75025
2	0	0	1	258.917	-1.1411	-1.1425	-76.1451	-1.52865	37	0.588344	0.0869962	-1.73085
2	0	0	1	260.251	-1.12776	-1.12806	-63.8201	-1.62169	37	0.581166	0.0719932	-1.70923
2	0	0	1	261.584	-1.11443	-1.1119	-52.3213	-1.69873	37	0.574057	0.0581763	-1.68596
2	0	0	1	262.951	-1.10076	-1.10163	-41.6355	-1.76259	38	0.566397	0.0458671	-1.66803
2	0	0	1	264.285	-1.08742	-1.0881	-31.8777	-1.81121	38	0.558376	0.0346861	-1.64647
2	0	0	1	265.618	-1.07409	-1.0733	-23.0369	-1.84752	38	0.54959	0.0247255	-1.62289
2	0	0	1	266.951	-1.06075	-1.06375	-14.9394	-1.87245	38	0.539237	0.0158917	-1.60298
2	0	0	1	268.285	-1.04742	-1.04861	-7.21814	-1.88695	38	0.525139	0.00756902	-1.57375
2	0	0	1	269.618	-1.03408	-1.03546	0.958555	-1.89103	39	0.493791	-0.000992541	-1.52925
2	1	0	1	270.985	-1.02041	-1.02072	11.5427	-1.8823	38	0.389772	-0.0117819	-1.4105
2	1	0	1	272.319	-1.00708	-1.00942	16.9367	-1.8615	38	0.294967	-0.0170962	-1.30438
2	1	0	1	273.652	-0.993745	-0.993219	15.0454	-1.8403	38	0.258418	-0.0149434	-1.25164
2	1	0	1	274.986	-0.980409	-0.980148	15.6846	-1.81957	38	0.0475325	-0.0153732	-1.02768
2	1	0	1	276.319	-0.967075	-0.967331	16.2805	-1.79807	38	-0.870876	-0.0157486	-0.0964546
2	1	0	1	277.653	-0.953739	-0.954955	18.382	-1.77488	38	-0.980016	-0.017554	0.0250605
2	0	0	1	372.256	-1.24711	-1.24942	-196.144	-0.0430588	37	0.634337	0.245067	-1.88376
2	0	0	1	373.59	-1.23377	-1.23595	-179.347	-0.293012	37	0.628411	0.221664	-1.86436
2	0	0	1	374.923	-1.22044	-1.22259	-162.867	-0.520748	37	0.622571	0.19912	-1.84516
2	0	0	1	376.257	-1.2071	-1.20855	-147.402	-0.727428	37	0.616197	0.178142	-1.82475
2	0	0	1	377.59	-1.19377	-1.1943	-131.9	-0.913256	37	0.610054	0.157528	-1.80435
2	0	0	1	378.924	-1.18043	-1.18055	-116.792	-1.07868	37	0.603569	0.137878	-1.78412
2	0	0	1	380.257	-1.1671	-1.16709	-102.305	-1.22434	37	0.597306	0.119398	-1.76439
2	0	0	1	381.591	-1.15376	-1.15499	-88.1455	-1.35082	37	0.590105	0.101807	-1.74509
2	0	0	1	382.924	-1.14043	-1.14078	-74.8901	-1.45909	37	0.583537	0.0854329	-1.72431
2	0	0	1	384.258	-1.12709	-1.12778	-62.5258	-1.5502	37	0.576185	0.0705151	-1.70396
2	0	0	1	385.591	-1.11376	-1.1146	-50.7754	-1.62523	37	0.568673	0.0565944	-1.68327
2	0	0	1	386.958	-1.10009	-1.10082	-39.7751	-1.68669	38	0.560364	0.0437852	-1.66118
2	0	0	1	388.292	-1.08675	-1.08739	-30.0374	-1.73286	38	0.552255	0.0326624	-1.63965
2	0	0	1	389.625	-1.07342	-1.07198	-21.1662	-1.76656	38	0.543307	0.0226897	-1.61529
2	0	0	1	390.959	-1.06008	-1.06006	-12.9525	-1.78894	38	0.532503	0.0137305	-1.59257
2	0	0	1	392.292	-1.04675	-1.04703	-5.24922	-1.80075	38	0.517078	0.00549607	-1.56411
2	1	0	1	393.625	-1.03342	-1.03526	2.95582	-1.80225	39	0.477074	-0.00306002	-1.51233
2	1	0	1	394.959	-1.02008	-1.02097	13.461	-1.7912	38	0.364814	-0.0137433	-1.38579
2	1	0	1	396.292	-1.00675	-1.00577	18.2336	-1.76809	38	0.284817	-0.0183388	-1.29059
2	1	0	1	397.626	-0.993411	-0.993577	15.7563	-1.74577	38	0.250335	-0.0156551	-1.24391
2	1	0	1	398.959	-0.980077	-0.980966	15.7854	-1.72462	38	-0.135925	-0.0154849	-0.845041
2	1	0	1	400.293	-0.966741	-0.96786	16.4234	-1.70313	38	-0.896785	-0.0158956	-0.0710744
2	1	0	1	401.626	-0.953407	-0.951523	18.8629	-1.67966	38	-0.997709	-0.0179485	0.0461859
2	0	0	1	496.997	-1.24844	-1.25075	-199.378	-0.043803	37	0.631122	0.249372	-1.88187
2	0	0	1	498.33	-1.23511	-1.2378	-182.59	-0.297964	37	0.624766	0.226009	-1.86256
2	0	0	1	499.664	-1.22177	-1.22127	-166.404	-0.530267	37	0.61924	0.203223	-1.84051
2	0	0	1	500.997	-1.20844	-1.20935	-150.788	-0.741313	37	0.613328	0.182356	-1.82268
2	0	0	1	502.331	-1.1951	-1.19577	-135.319	-0.931596	37	0.607694	0.16181	-1.80346
2	0	0	1	503.664	-1.18177	-1.18344	-120.21	-1.10152	37	0.601489	0.142261	-1.78493
2	0	0	1	504.998	-1.16843	-1.16874	-105.659	-1.25168	37	0.594833	0.123487	-1.76357
2	0	0	1	506.331	-1.1551	-1.15374	-91.6008	-1.38279	37	0.588569	0.105683	-1.74231
2	0	0	1	507.665	-1.14176	-1.14151	-78.0798	-1.49535	37	0.58158	0.0891289	-1.72309
2	0	0	1	508.998	-1.12843	-1.1284	-65.137	-1.59034	37	0.574632	0.0735007	-1.70303
2	0	0	1	510.332	-1.11509	-1.11551	-53.1124	-1.66871	37	0.567242	0.0592474	-1.68275
2	0	0	1	511.699	-1.10142	-1.1042	-41.6152	-1.7329	38	0.558733	0.0459514	-1.66293
2	0	0	1	513.032	-1.08809	-1.08935	-31.3319	-1.78113	38	0.551141	0.0341313	-1.64049
2	0	0	1	514.366	-1.07475	-1.0757	-21.9745	-1.81626	38	0.541828	0.0236381	-1.61753
2	0	0	1	515.699	-1.06142	-1.05978	-13.4349	-1.8395	38	0.530836	0.0142381	-1.59062
2	0	0	1	517.033	-1.04808	-1.04839	-5.56335	-1.85178	38	0.515265	0.00583253	-1.56365
2	1	0	1	518.366	-1.03475	-1.03577	2.52152	-1.85374	39	0.478287	-0.00261171	-1.51406
2	1	0	1	519.7	-1.02141	-1.02356	13.0399	-1.84332	38	0.369779	-0.0133471	-1.39334
2	1	0	1	521.033	-1.00808	-1.00993	18.5135	-1.82032	38	0.286102	-0.0186973	-1.29603
2	1	0	1	522.367	-0.994744	-0.996618	15.6423	-1.79785	38	0.25681	-0.0155894	-1.25343
2	1	0	1	523.7	-0.98141	-0.981294	15.552	-1.77693	38	0.0383001	-0.015261	-1.01959
2	1	0	1	525.034	-0.968074	-0.967765	16.2786	-1.7557	38	-0.882969	-0.0157538	-0.0847954
2	1	0	1	526.367	-0.95474	-0.956233	18.7882	-1.73235	38	-0.995373	-0.0179659	0.0391404
2	0	0	1	621.137	-1.25111	-1.252	-207.9	-0.0457921	37	0.630974	0.26029	-1.88297
2	0	0	1	622.471	-1.23777	-1.23801	-190.475	-0.310968	37	0.625548	0.235809	-1.86355
2	0	0	1	623.804	-1.22444	-1.22443	-174.153	-0.553711	37	0.619737	0.213238	-1.84417
2	0	0	1	625.138	-1.2111	-1.21325	-157.576	-0.774533	37	0.61394	0.191179	-1.82719
2	0	0	1	626.471	-1.19777	-1.19532	-141.931	-0.973978	37	0.607611	0.169653	-1.80293
2	0	0	1	627.805	-1.18443	-1.18371	-126.466	-1.1526	37	0.601983	0.149699	-1.7857
2	0	0	1	629.138	-1.1711	-1.17302	-111.487	-1.31093	37	0.595816	0.130777	-1.76884
2	0	0	1	630.472	-1.15776	-1.16118	-96.8711	-1.44949	37	0.589081	0.112485	-1.75026
2	0	0	1	631.805	-1.14443	-1.14212	-82.8751	-1.56886	37	0.582383	0.0946531	-1.7245
2	0	0	1	633.139	-1.13109	-1.12969	-69.3912	-1.66998	37	0.57495	0.0783903	-1.70464
2	0	0	1	634.472	-1.11776	-1.11842	-56.7916	-1.75372	37	0.56801	0.0635167	-1.68643
2	0	0	1	635.822	-1.10426	-1.10486	-44.8503	-1.82187	37	0.559997	0.0495535	-1.66486
2	0	0	1	637.172	-1.09076	-1.09147	-34.0182	-1.8747	38	0.551765	0.0371298	-1.64324
2	0	0	1	638.506	-1.07742	-1.07736	-24.1081	-1.913	38	0.542236	0.0259732	-1.6196
2	0	0	1	639.839	-1.06409	-1.06438	-15.0458	-1.93869	38	0.53214	0.0160145	-1.59652
2	0	0	1	641.173	-1.05075	-1.05039	-7.01222	-1.95291	38	0.51794	0.00736558	-1.56833
2	0	0	1	642.506	-1.03742	-1.03757	0.857814	-1.95676	39	0.488035	-0.000890042	-1.52561
2	1	0	1	643.856	-1.02391	-1.02437	11.1557	-1.94857	39	0.392431	-0.0114276	-1.4168
2	1	0	1	645.207	-1.01041	-1.01054	18.7176	-1.92664	38	0.29258	-0.0189149	-1.30312
2	1	0	1	646.54	-0.997078	-0.996196	15.3959	-1.9039	38	0.265686	-0.0153374	-1.26188
2	1	0	1	647.874	-0.983743	-0.981771	15.2181	-1.88334	38	0.197107	-0.0149406	-1.17888
2	1	0	1	649.207	-0.970409	-0.970684	15.8728	-1.86257	38	-0.835227	-0.0154075	-0.135457
2	1	0	1	650.541	-0.957073	-0.955819	18.2479	-1.83979	38	-0.97366	-0.0174416	0.0178415
2	1	0	0	651.231	-0.949906	-0.957566	21.0305	-1.82645	38	-1.02078	-0.0201381	0.0632129