File: TS-82-25-02-120-100_2024-07-29_clean_NaOH_04_LSV_C01 (1).txt
mode	ox/red	error	control changes	time/s	control/V	Ewe/V	<I>/mA	(Q-Qo)/C	I Range	<Ece>/V	P/W	Ewe-Ece/V
2	0	0	1	123.593	-1.24395	-1.24459	-198.968	-0.00708608	37	0.644422	0.247633	-1.88901
2	0	0	1	124.11	-1.23879	-1.23928	-192.478	-0.107928	37	0.64256	0.238535	-1.88184
2	0	0	1	124.777	-1.23212	-1.23289	-184.225	-0.233346	37	0.639065	0.22713	-1.87196
2	0	0	1	125.443	-1.22545	-1.2257	-176.335	-0.353385	37	0.636528	0.216133	-1.86223
2	0	0	1	126.11	-1.21878	-1.21873	-168.546	-0.4682	37	0.633693	0.205413	-1.85243
2	0	0	1	126.777	-1.21212	-1.21249	-160.808	-0.577853	37	0.630531	0.194978	-1.84302
2	0	0	1	127.444	-1.20545	-1.20572	-153.382	-0.682471	37	0.627848	0.184937	-1.83357
2	0	0	1	128.11	-1.19878	-1.19916	-145.908	-0.782051	37	0.624944	0.174967	-1.8241
2	0	0	1	128.777	-1.19211	-1.19223	-138.723	-0.876783	37	0.621724	0.16539	-1.81396
2	0	0	1	129.444	-1.18545	-1.18477	-131.676	-0.966769	37	0.619006	0.156005	-1.80377
2	0	0	1	130.111	-1.17878	-1.17935	-124.64	-1.05208	37	0.616141	0.146995	-1.79549
2	0	0	1	130.777	-1.17211	-1.17201	-117.581	-1.13269	37	0.612666	0.137805	-1.78467
2	0	0	1	131.444	-1.16544	-1.16472	-110.802	-1.20872	37	0.609955	0.129053	-1.77468
2	0	0	1	132.111	-1.15878	-1.15692	-104.191	-1.28025	37	0.606781	0.12054	-1.7637
2	0	0	1	132.778	-1.15211	-1.15088	-97.5481	-1.34737	37	0.603873	0.112266	-1.75475
2	0	0	1	133.444	-1.14544	-1.14743	-91.08	-1.41009	37	0.600332	0.104508	-1.74777
2	0	0	1	134.111	-1.13877	-1.1398	-84.5459	-1.46853	37	0.597088	0.0963653	-1.73689
2	0	0	1	134.778	-1.13211	-1.13258	-78.4803	-1.5227	37	0.593885	0.0888852	-1.72646
2	0	0	1	135.445	-1.12544	-1.12709	-72.358	-1.57284	37	0.590436	0.081554	-1.71753
2	0	0	1	136.111	-1.11877	-1.11736	-66.4049	-1.61897	37	0.587484	0.0741983	-1.70484
2	0	0	1	136.778	-1.1121	-1.11227	-60.5905	-1.66117	37	0.583961	0.0673932	-1.69623
2	0	0	1	137.445	-1.10544	-1.10421	-55.0439	-1.69955	37	0.580604	0.0607799	-1.68481
2	0	0	1	138.112	-1.09877	-1.10055	-49.5849	-1.73428	37	0.576729	0.0545707	-1.67728
2	0	0	1	138.795	-1.09194	-1.09271	-44.0817	-1.76609	37	0.572868	0.0481687	-1.66558
2	0	0	1	139.478	-1.0851	-1.08561	-38.7388	-1.79428	38	0.568946	0.0420552	-1.65456
2	0	0	1	140.145	-1.07843	-1.07982	-33.7586	-1.81829	38	0.564636	0.0364532	-1.64445
2	0	0	1	140.812	-1.07177	-1.07253	-28.8256	-1.839	38	0.560503	0.0309164	-1.63304
2	0	0	1	141.479	-1.0651	-1.06693	-23.9734	-1.85645	38	0.555404	0.0255779	-1.62233
2	0	0	1	142.145	-1.05843	-1.05849	-19.2229	-1.87071	38	0.549836	0.0203472	-1.60832
2	0	0	1	142.812	-1.05176	-1.05281	-14.5218	-1.88181	38	0.543625	0.0152886	-1.59643
2	0	0	1	143.479	-1.0451	-1.04502	-9.83259	-1.88977	38	0.535677	0.0102752	-1.58069
2	0	0	1	144.146	-1.03843	-1.03856	-5.06398	-1.89459	38	0.524108	0.00525924	-1.56267
2	0	0	1	144.812	-1.03176	-1.03166	0.0490554	-1.89613	39	0.501437	-5.06087e-05	-1.5331
2	1	0	1	145.479	-1.02509	-1.02554	5.6496	-1.89409	39	0.452578	-0.00579387	-1.47811
2	1	0	1	146.162	-1.01826	-1.01976	11.5149	-1.88802	39	0.384281	-0.0117424	-1.40404
2	1	0	1	146.846	-1.01143	-1.01144	17.0226	-1.87811	38	0.332426	-0.0172173	-1.34386
2	1	0	1	147.513	-1.00476	-1.00481	19.9685	-1.86555	38	0.297067	-0.0200647	-1.30188
2	1	0	1	148.179	-0.998092	-0.997905	22.674	-1.85113	38	0.249312	-0.0226265	-1.24722
2	1	0	1	148.846	-0.991423	-0.990845	24.1887	-1.83528	38	-0.205206	-0.0239673	-0.78564
2	1	0	1	149.513	-0.984757	-0.985653	26.4374	-1.81829	38	-1.03543	-0.0260581	0.0497729
2	1	0	1	150.18	-0.97809	-0.978855	28.4681	-1.79984	38	-1.14905	-0.0278661	0.1702
2	1	0	1	150.846	-0.971422	-0.971709	30.2206	-1.78013	38	-1.14326	-0.0293656	0.171548
2	1	0	1	151.513	-0.964754	-0.965234	31.4813	-1.75938	38	-1.11803	-0.0303868	0.1528
2	1	0	1	152.18	-0.958088	-0.958163	31.7801	-1.73815	38	-1.10819	-0.0304505	0.150031
2	1	0	1	152.83	-0.951587	-0.951889	31.883	-1.71735	38	-1.10607	-0.0303491	0.154179
2	0	0	0	243	-1.24229	-1.23984	-199.056	-0.00708479	37	0.635372	0.246797	-1.87521
2	0	0	1	243.517	-1.23712	-1.23746	-192.408	-0.107945	37	0.63311	0.238096	-1.87057
2	0	0	1	244.184	-1.23045	-1.23146	-184.489	-0.233385	37	0.63017	0.22719	-1.86163
2	0	0	1	244.85	-1.22378	-1.22511	-176.629	-0.35362	37	0.627842	0.21639	-1.85295
2	0	0	1	245.517	-1.21712	-1.21777	-168.96	-0.46867	37	0.624932	0.205755	-1.8427
2	0	0	1	246.184	-1.21045	-1.21116	-161.298	-0.578596	37	0.622312	0.195358	-1.83348
2	0	0	1	246.851	-1.20378	-1.20255	-153.566	-0.683342	37	0.61919	0.184671	-1.82174
2	0	0	1	247.517	-1.19711	-1.19712	-146.193	-0.783102	37	0.616197	0.17501	-1.81332
2	0	0	1	248.184	-1.19045	-1.19422	-138.793	-0.877927	37	0.613551	0.165749	-1.80777
2	0	0	1	248.851	-1.18378	-1.18461	-131.429	-0.967857	37	0.610436	0.155693	-1.79505
2	0	0	1	249.518	-1.17711	-1.179	-124.199	-1.05289	37	0.607469	0.14643	-1.78647
2	0	0	1	250.184	-1.17044	-1.17009	-117.083	-1.13319	37	0.60456	0.136997	-1.77465
2	0	0	1	250.851	-1.16378	-1.16494	-110.15	-1.20881	37	0.60157	0.128318	-1.76651
2	0	0	1	251.518	-1.15711	-1.1571	-103.084	-1.27973	37	0.598407	0.119278	-1.75551
2	0	0	1	252.185	-1.15044	-1.15126	-96.2611	-1.34602	37	0.595349	0.110821	-1.74661
2	0	0	1	252.851	-1.14377	-1.14658	-89.6525	-1.40783	37	0.592275	0.102793	-1.73885
2	0	0	1	253.518	-1.13711	-1.13858	-83.0785	-1.46526	37	0.588762	0.0945915	-1.72734
2	0	0	1	254.185	-1.13044	-1.13149	-76.6781	-1.51834	37	0.585974	0.0867603	-1.71746
2	0	0	1	254.852	-1.12377	-1.12642	-70.3693	-1.56718	37	0.582647	0.0792651	-1.70906
2	0	0	1	255.518	-1.1171	-1.11756	-64.248	-1.61189	37	0.57885	0.0718008	-1.69641
2	0	0	1	256.185	-1.11044	-1.11163	-58.2425	-1.65256	37	0.575473	0.0647438	-1.6871
2	0	0	1	256.852	-1.10377	-1.1039	-52.4687	-1.68928	37	0.572163	0.0579202	-1.67606
2	0	0	1	257.519	-1.0971	-1.0968	-46.6599	-1.72216	37	0.568062	0.0511768	-1.66487
2	0	0	1	258.219	-1.0901	-1.09106	-40.9682	-1.75269	38	0.564078	0.0446989	-1.65514
2	0	0	1	258.885	-1.08343	-1.08352	-35.6673	-1.77811	38	0.559986	0.0386462	-1.6435
2	0	0	1	259.552	-1.07677	-1.07722	-30.5355	-1.80003	38	0.555706	0.0328934	-1.63292
2	0	0	1	260.219	-1.0701	-1.06999	-25.4754	-1.81856	38	0.550953	0.0272585	-1.62094
2	0	0	1	260.886	-1.06343	-1.06411	-20.5849	-1.83376	38	0.545892	0.0219045	-1.61
2	0	0	1	261.552	-1.05676	-1.05701	-15.7966	-1.84575	38	0.54006	0.0166971	-1.59707
2	0	0	1	262.219	-1.0501	-1.04993	-11.0652	-1.85458	38	0.532839	0.0116177	-1.58277
2	0	0	1	262.886	-1.04343	-1.04427	-6.35114	-1.86024	38	0.522887	0.00663232	-1.56716
2	0	0	1	263.553	-1.03676	-1.03662	-1.6051	-1.86279	39	0.506589	0.00166388	-1.54321
2	1	0	1	264.219	-1.03009	-1.03004	3.48162	-1.86205	39	0.471156	-0.00358619	-1.50119
2	1	0	1	264.886	-1.02343	-1.02342	9.13787	-1.85772	39	0.411644	-0.00935184	-1.43506
2	1	0	1	265.553	-1.01676	-1.01887	14.9076	-1.84956	38	0.34747	-0.0151888	-1.36634
2	1	0	1	266.22	-1.01009	-1.0108	19.9165	-1.8377	38	0.308031	-0.0201316	-1.31883
2	1	0	1	266.886	-1.00342	-1.00374	23.1435	-1.82318	38	0.271576	-0.02323	-1.27531
2	1	0	1	267.553	-0.996759	-0.996871	24.8763	-1.80705	38	0.212926	-0.0247984	-1.2098
2	1	0	1	268.22	-0.990091	-0.989737	25.9164	-1.79009	38	-0.922383	-0.0256504	-0.0673536
2	1	0	1	268.887	-0.983423	-0.983113	27.7382	-1.7721	38	-1.0551	-0.0272698	0.0719881
2	1	0	1	269.553	-0.976756	-0.976983	29.2637	-1.75298	38	-1.07252	-0.0285901	0.0955384
2	1	0	1	270.22	-0.970089	-0.97082	30.2928	-1.73299	38	-1.0785	-0.0294089	0.107682
2	1	0	1	270.887	-0.963421	-0.963887	30.8302	-1.7125	38	-1.08531	-0.0297169	0.121421
2	1	0	1	271.554	-0.956753	-0.957357	30.9278	-1.69182	38	-1.08912	-0.029609	0.131764
2	1	0	1	272.137	-0.95092	-0.951849	31.1053	-1.67366	38	-1.09167	-0.0296076	0.139817
2	1	0	0	272.212	-0.949919	-0.949696	31.6206	-1.67131	38	-1.09332	-0.0300299	0.143629