File: TS-82-25-02-240-100_2024-07-25_clean_NaOH_04_LSV_C01.txt
mode	ox/red	error	control changes	time/s	control/V	Ewe/V	<I>/mA	(Q-Qo)/C	I Range	<Ece>/V	P/W	Ewe-Ece/V
2	0	0	0	123.468	-1.21629	-1.21856	-197.985	-0.00704623	37	0.637424	0.241257	-1.85599
2	0	0	1	123.985	-1.21112	-1.21205	-191.551	-0.107438	37	0.635504	0.232169	-1.84755
2	0	0	1	124.652	-1.20445	-1.20522	-183.088	-0.232095	37	0.632753	0.22066	-1.83797
2	0	0	1	125.318	-1.19779	-1.19782	-174.822	-0.351188	37	0.629501	0.209404	-1.82732
2	0	0	1	125.985	-1.19112	-1.19046	-166.728	-0.464878	37	0.626989	0.198483	-1.81745
2	0	0	1	126.652	-1.18445	-1.18493	-158.628	-0.57313	37	0.624204	0.187964	-1.80914
2	0	0	1	127.319	-1.17778	-1.17743	-150.697	-0.67601	37	0.620915	0.177436	-1.79835
2	0	0	1	127.985	-1.17112	-1.17095	-142.729	-0.773623	37	0.617747	0.167129	-1.7887
2	0	0	1	128.652	-1.16445	-1.16534	-134.911	-0.865951	37	0.614659	0.157217	-1.78
2	0	0	1	129.319	-1.15778	-1.15939	-127.31	-0.95315	37	0.611643	0.147602	-1.77104
2	0	0	1	129.986	-1.15111	-1.15078	-119.569	-1.03524	37	0.608653	0.137598	-1.75943
2	0	0	1	130.652	-1.14445	-1.14368	-112.073	-1.11227	37	0.605417	0.128175	-1.7491
2	0	0	1	131.319	-1.13778	-1.13902	-104.742	-1.18435	37	0.602125	0.119303	-1.74115
2	0	0	1	131.986	-1.13111	-1.1306	-97.4583	-1.2515	37	0.598756	0.110186	-1.72935
2	0	0	1	132.653	-1.12444	-1.12604	-90.3144	-1.31388	37	0.595572	0.101698	-1.72161
2	0	0	1	133.319	-1.11778	-1.11819	-83.2903	-1.37156	37	0.591997	0.0931344	-1.71019
2	0	0	1	133.986	-1.11111	-1.11169	-76.2766	-1.42456	37	0.588452	0.0847961	-1.70014
2	0	0	1	134.653	-1.10444	-1.10507	-69.5193	-1.47295	37	0.584995	0.0768233	-1.69006
2	0	0	1	135.32	-1.09777	-1.09819	-62.9881	-1.51693	37	0.58121	0.0691728	-1.6794
2	0	0	1	135.986	-1.09111	-1.09186	-56.4287	-1.55653	37	0.577219	0.0616125	-1.66908
2	0	0	1	136.653	-1.08444	-1.08362	-50.0996	-1.59184	37	0.573377	0.0542892	-1.657
2	0	0	1	137.336	-1.07761	-1.07871	-43.7633	-1.62368	37	0.569023	0.047208	-1.64773
2	0	0	1	138.02	-1.07077	-1.07078	-37.5816	-1.6513	38	0.564194	0.0402415	-1.63497
2	0	0	1	138.687	-1.0641	-1.06524	-31.5468	-1.67414	38	0.55901	0.033605	-1.62425
2	0	0	1	139.353	-1.05744	-1.05824	-25.6571	-1.69303	38	0.554427	0.0271515	-1.61267
2	0	0	1	140.02	-1.05077	-1.05302	-19.7427	-1.70798	38	0.548375	0.0207895	-1.6014
2	0	0	1	140.687	-1.0441	-1.0445	-13.7382	-1.71895	38	0.540329	0.0143496	-1.58483
2	0	0	1	141.354	-1.03743	-1.03733	-7.51985	-1.72586	38	0.529326	0.00780055	-1.56665
2	0	0	1	142.054	-1.03043	-1.03071	-0.795091	-1.72858	39	0.507868	0.000819509	-1.53858
2	1	0	1	142.72	-1.02377	-1.02381	5.56497	-1.72679	39	0.458517	-0.00569745	-1.48232
2	1	0	1	143.421	-1.01676	-1.01638	11.8359	-1.72045	38	0.383066	-0.0120298	-1.39945
2	1	0	1	144.087	-1.0101	-1.01027	16.8134	-1.71069	38	0.335148	-0.0169861	-1.34542
2	1	0	1	144.754	-1.00343	-1.00342	19.8067	-1.69821	38	0.30157	-0.0198746	-1.30499
2	1	0	1	145.421	-0.996763	-0.996791	22.8058	-1.6839	38	0.251541	-0.0227326	-1.24833
2	1	0	1	146.088	-0.990095	-0.989773	25.1106	-1.66757	38	-0.293083	-0.0248538	-0.69669
2	1	0	1	146.754	-0.983429	-0.983876	27.9004	-1.64978	38	-1.00711	-0.0274506	0.0232365
2	1	0	1	147.421	-0.976761	-0.977315	30.9202	-1.63	38	-1.12705	-0.0302188	0.149737
2	1	0	1	148.088	-0.970092	-0.970116	33.7664	-1.60826	38	-1.14203	-0.0327573	0.171917
2	1	0	1	148.754	-0.963426	-0.964764	36.1953	-1.58479	38	-1.14332	-0.0349199	0.178554
2	1	0	1	149.421	-0.956759	-0.956588	38.3635	-1.55979	38	-1.14406	-0.036698	0.187472
2	1	0	1	150.005	-0.950924	-0.949816	40.0407	-1.53683	38	-1.14533	-0.0380313	0.195517
2	0	0	0	244.208	-1.21895	-1.2192	-202.828	-0.00722321	37	0.62801	0.247288	-1.84721
2	0	0	1	244.725	-1.21379	-1.21443	-195.071	-0.109555	37	0.625379	0.2369	-1.83981
2	0	0	1	245.392	-1.20712	-1.20711	-186.519	-0.236569	37	0.622856	0.225149	-1.82997
2	0	0	1	246.058	-1.20045	-1.20064	-177.99	-0.357911	37	0.619993	0.213702	-1.82064
2	0	0	1	246.725	-1.19379	-1.19255	-169.616	-0.47368	37	0.617	0.202275	-1.80955
2	0	0	1	247.392	-1.18712	-1.18752	-161.455	-0.583873	37	0.614057	0.191732	-1.80158
2	0	0	1	248.059	-1.18045	-1.18078	-153.135	-0.688577	37	0.611002	0.180818	-1.79178
2	0	0	1	248.725	-1.17378	-1.17413	-144.996	-0.78783	37	0.60827	0.170244	-1.7824
2	0	0	1	249.392	-1.16712	-1.16737	-136.989	-0.881695	37	0.605013	0.159916	-1.77238
2	0	0	1	250.059	-1.16045	-1.16105	-129.171	-0.970275	37	0.602078	0.149974	-1.76313
2	0	0	1	250.726	-1.15378	-1.15468	-121.321	-1.05363	37	0.599328	0.140087	-1.75401
2	0	0	1	251.392	-1.14711	-1.14659	-113.621	-1.13182	37	0.595951	0.130277	-1.74254
2	0	0	1	252.059	-1.14045	-1.14102	-105.996	-1.2049	37	0.592705	0.120944	-1.73373
2	0	0	1	252.726	-1.13378	-1.13341	-98.506	-1.27287	37	0.589459	0.111647	-1.72287
2	0	0	1	253.393	-1.12711	-1.1288	-91.215	-1.33597	37	0.585979	0.102963	-1.71477
2	0	0	1	254.059	-1.12044	-1.12128	-83.8523	-1.39418	37	0.582726	0.0940219	-1.70401
2	0	0	1	254.726	-1.11378	-1.11439	-76.7772	-1.44758	37	0.579066	0.0855595	-1.69345
2	0	0	1	255.393	-1.10711	-1.10734	-69.8848	-1.49634	37	0.575972	0.0773859	-1.68331
2	0	0	1	256.06	-1.10044	-1.10104	-63.048	-1.54051	37	0.571718	0.0694183	-1.67276
2	0	0	1	256.726	-1.09377	-1.09666	-56.3962	-1.58017	37	0.568037	0.0618477	-1.6647
2	0	0	1	257.393	-1.08711	-1.08749	-49.8346	-1.61542	37	0.564513	0.0541948	-1.65201
2	0	0	1	258.076	-1.08027	-1.08167	-43.4163	-1.64709	37	0.560194	0.0469621	-1.64186
2	0	0	1	258.76	-1.07344	-1.07528	-37.1884	-1.67451	38	0.555945	0.0399881	-1.63123
2	0	0	1	259.427	-1.06677	-1.06662	-31.1079	-1.69714	38	0.551456	0.0331804	-1.61808
2	0	0	1	260.093	-1.0601	-1.06093	-25.238	-1.71578	38	0.546014	0.0267757	-1.60694
2	0	0	1	260.76	-1.05344	-1.05348	-19.4317	-1.73052	38	0.540223	0.0204709	-1.5937
2	0	0	1	261.427	-1.04677	-1.0479	-13.5641	-1.74138	38	0.53284	0.0142138	-1.58074
2	0	0	1	262.094	-1.0401	-1.04093	-7.74848	-1.74834	38	0.523229	0.0080656	-1.56416
2	0	0	1	262.794	-1.0331	-1.03279	-1.38232	-1.75142	39	0.504878	0.00142765	-1.53767
2	1	0	1	263.46	-1.02643	-1.0275	4.99843	-1.75008	39	0.463161	-0.0051359	-1.49067
2	1	0	1	264.144	-1.0196	-1.01936	11.5066	-1.74424	39	0.391292	-0.0117294	-1.41065
2	1	0	1	264.827	-1.01276	-1.01266	17.3633	-1.73422	38	0.332873	-0.0175832	-1.34554
2	1	0	1	265.494	-1.0061	-1.00495	21.3957	-1.72105	38	0.294417	-0.0215017	-1.29937
2	1	0	1	266.161	-0.99943	-1.00051	23.8605	-1.70586	38	0.257164	-0.0238726	-1.25767
2	1	0	1	266.828	-0.992762	-0.993189	26.0154	-1.68901	38	-0.145155	-0.0258382	-0.848034
2	1	0	1	267.494	-0.986096	-0.986146	28.1042	-1.67094	38	-0.991002	-0.0277148	0.00485629
2	1	0	1	268.161	-0.979427	-0.979429	30.9753	-1.65114	38	-1.07387	-0.0303381	0.0944379
2	1	0	1	268.828	-0.972759	-0.972751	33.6351	-1.62949	38	-1.08626	-0.0327185	0.113513
2	1	0	1	269.494	-0.966092	-0.966408	35.7171	-1.60628	38	-1.09367	-0.0345173	0.127262
2	1	0	1	270.161	-0.959426	-0.959855	37.697	-1.58167	38	-1.10077	-0.0361837	0.140914
2	1	0	1	270.828	-0.952757	-0.95293	39.5475	-1.55582	38	-1.10611	-0.037686	0.153181
2	1	0	1	271.087	-0.949924	-0.951841	40.5382	-1.54547	38	-1.10738	-0.0385859	0.155542