File: TS-82-25-08-60-400c_2024-08-22_C01.txt
mode	error	time/s	<Ewe/V>
3	0	0.5	-0.465186
3	0	13.5	-0.46514
3	0	26.5	-0.465068
3	0	39.5	-0.464488
3	0	52.5	-0.464014
3	0	65.5	-0.46365
3	0	78.5	-0.463898
3	0	91.5	-0.464322
3	0	104.5	-0.464644
3	0	117.5	-0.464826
3	0	130.5	-1.82783
3	0	143.5	-1.96176
3	0	156.5	-1.99702
3	0	169.5	-2.03796
3	0	182.5	-1.92834
3	0	195.5	-1.90312
3	0	208.5	-1.85501
3	0	221.5	-1.89137
3	0	234.5	-1.81581
3	0	247.5	-1.78321
3	0	260.5	-1.80448
3	0	273.5	-1.7424
3	0	286.5	-1.75049
3	0	299.5	-1.76714
3	0	312.5	-1.75035
3	0	325.5	-1.74629
3	0	338.5	-1.75513
3	0	351.5	-1.73326
3	0	364.5	-1.75793
3	0	377.5	-1.77252
3	0	390.5	-1.7681
3	0	403.5	-1.74393
3	0	416.5	-1.74938
3	0	429.5	-1.73129
3	0	442.5	-1.70569
3	0	455.5	-1.70242
3	0	468.5	-1.69227
3	0	481.5	-1.65783
3	0	494.5	-1.65993
3	0	507.5	-1.69073
3	0	520.5	-1.68157
3	0	533.5	-1.66946
3	0	546.5	-1.70405
3	0	559.5	-1.69962
3	0	572.5	-1.68167
3	0	585.5	-1.6783
3	0	598.5	-1.67943
3	0	611.5	-1.65577
3	0	624.5	-1.661
3	0	637.5	-1.65982
3	0	650.5	-1.67116
3	0	663.5	-1.68613
3	0	676.5	-1.70622
3	0	689.5	-1.65371
3	0	702.5	-1.67697
3	0	715.5	-1.64837
3	0	728.5	-1.64149
3	0	741.5	-1.66212
3	0	754.5	-1.65005
3	0	767.5	-1.66971
3	0	780.5	-1.66457
3	0	793.5	-1.68308
3	0	806.5	-1.67428
3	0	819.5	-1.65305
3	0	832.5	-1.6609
3	0	845.5	-1.6693
3	0	858.5	-1.657
3	0	871.5	-1.65101
3	0	884.5	-1.64763
3	0	897.5	-1.65346
3	0	910.5	-1.66569
3	0	923.5	-1.66959
3	0	936.5	-1.67295
3	0	949.5	-1.67466
3	0	962.5	-1.651
3	0	975.5	-1.647
3	0	988.5	-1.65457
3	0	1001.5	-1.64509
3	0	1014.5	-1.64685
3	0	1027.5	-1.64678
3	0	1040.5	-1.64796
3	0	1053.5	-1.6511
3	0	1066.5	-1.66166
3	0	1079.5	-1.65712
3	0	1092.5	-1.64475
3	0	1105.5	-1.65911
3	0	1118.5	-1.63656
3	0	1131.5	-1.63361
3	0	1144.5	-1.63393
3	0	1157.5	-1.64463
3	0	1170.5	-1.64698
3	0	1183.5	-1.66982
3	0	1196.5	-1.66934
3	0	1209.5	-1.65923
3	0	1222.5	-1.64849
3	0	1235.5	-1.64312
3	0	1248.5	-1.63888
3	0	1261.5	-1.62945
3	0	1274.5	-1.63947
3	0	1287.5	-1.64066
3	0	1300.5	-1.63238
3	0	1313.5	-1.64182
3	0	1326.5	-1.64901
3	0	1339.5	-1.64027
3	0	1352.5	-1.6231
3	0	1365.5	-1.63153
3	0	1378.5	-1.6376
3	0	1391.5	-1.62124
3	0	1404.5	-1.62982
3	0	1417.5	-1.63815
3	0	1430.5	-1.63989
3	0	1443.5	-1.65317
3	0	1456.5	-1.63537
3	0	1469.5	-1.63817
3	0	1482.5	-1.6162
3	0	1495.5	-1.61855
3	0	1508.5	-1.62143
3	0	1521.5	-1.62263
3	0	1534.5	-1.63161
3	0	1547.5	-1.62046
3	0	1560.5	-1.64462
3	0	1573.5	-1.63953
3	0	1586.5	-1.64918
3	0	1599.5	-1.62545
3	0	1612.5	-1.63079
3	0	1625.5	-1.61245
3	0	1638.5	-1.61324
3	0	1651.5	-1.62221
3	0	1664.5	-1.62538
3	0	1677.5	-1.61848
3	0	1690.5	-1.63866
3	0	1703.5	-1.63212
3	0	1716.5	-1.64014
3	0	1729.5	-1.62616
3	0	1742.5	-1.61161
3	0	1755.5	-1.6202
3	0	1768.5	-1.61604
3	0	1781.5	-1.62023
3	0	1794.5	-1.63495
3	0	1807.5	-1.63936
3	0	1820.5	-1.6366
3	0	1833.5	-1.63682
3	0	1846.5	-1.62045
3	0	1859.5	-1.62141
3	0	1872.5	-1.61672
3	0	1885.5	-1.60867
3	0	1898.5	-1.61273
3	0	1911.5	-1.60932
3	0	1924.5	-1.63221
3	0	1937.5	-1.64464
3	0	1950.5	-1.63878
3	0	1963.5	-1.62967
3	0	1976.5	-1.61723
3	0	1989.5	-1.62192
3	0	2002.5	-1.60771
3	0	2015.5	-1.61434
3	0	2028.5	-1.62043
3	0	2041.5	-1.62746
3	0	2054.5	-1.63288
3	0	2067.5	-1.62966
3	0	2080.5	-1.63159
3	0	2093.5	-1.6308
3	0	2106.5	-1.62275
3	0	2119.5	-1.62497
3	0	2132.5	-1.60979
3	0	2145.5	-1.60071
3	0	2158.5	-1.62265
3	0	2171.5	-1.62935
3	0	2184.5	-1.64319
3	0	2197.5	-1.63021
3	0	2210.5	-1.61994
3	0	2223.5	-1.62119
3	0	2236.5	-1.6135
3	0	2249.5	-1.6037
3	0	2262.5	-1.6004
3	0	2275.5	-1.60796
3	0	2288.5	-1.61851
3	0	2301.5	-1.62188
3	0	2314.5	-1.64087
3	0	2327.5	-1.63775
3	0	2340.5	-1.62086
3	0	2353.5	-1.62036
3	0	2366.5	-1.61121
3	0	2379.5	-1.6071
3	0	2392.5	-1.61302
3	0	2405.5	-1.62011
3	0	2418.5	-1.62069
3	0	2431.5	-1.63352
3	0	2444.5	-1.62035
3	0	2457.5	-1.62238
3	0	2470.5	-1.60604
3	0	2483.5	-1.61363
3	0	2496.5	-1.60269
3	0	2509.5	-1.59853
3	0	2522.5	-1.60678
3	0	2535.5	-1.61257
3	0	2548.5	-1.62293
3	0	2561.5	-1.62667
3	0	2574.5	-1.62231
3	0	2587.5	-1.62794
3	0	2600.5	-1.61922
3	0	2613.5	-1.60554
3	0	2626.5	-1.59924
3	0	2639.5	-1.59055
3	0	2652.5	-1.59318
3	0	2665.5	-1.5961
3	0	2678.5	-1.61285
3	0	2691.5	-1.63036
3	0	2704.5	-1.62494
3	0	2717.5	-1.62009
3	0	2730.5	-1.60573
3	0	2743.5	-1.60222
3	0	2756.5	-1.59318
3	0	2769.5	-1.60466
3	0	2782.5	-1.60843
3	0	2795.5	-1.61665
3	0	2808.5	-1.62685
3	0	2821.5	-1.60887
3	0	2834.5	-1.62543
3	0	2847.5	-1.61362
3	0	2860.5	-1.60401
3	0	2873.5	-1.6088
3	0	2886.5	-1.59404
3	0	2899.5	-1.60585
3	0	2912.5	-1.60749
3	0	2925.5	-1.61807
3	0	2938.5	-1.61392
3	0	2951.5	-1.61712
3	0	2964.5	-1.60938
3	0	2977.5	-1.61058
3	0	2990.5	-1.60733
3	0	3003.5	-1.59588
3	0	3016.5	-1.59637
3	0	3029.5	-1.59683
3	0	3042.5	-1.5991
3	0	3055.5	-1.60815
3	0	3068.5	-1.61862
3	0	3081.5	-1.61827
3	0	3094.5	-1.61096
3	0	3107.5	-1.60799
3	0	3120.5	-1.60668
3	0	3133.5	-1.59541
3	0	3146.5	-1.59608
3	0	3159.5	-1.60062
3	0	3172.5	-1.61543
3	0	3185.5	-1.60864
3	0	3198.5	-1.61213
3	0	3211.5	-1.59865
3	0	3224.5	-1.60101
3	0	3237.5	-1.59431
3	0	3250.5	-1.58972
3	0	3263.5	-1.58827
3	0	3276.5	-1.60003
3	0	3289.5	-1.61207
3	0	3302.5	-1.61876
3	0	3315.5	-1.61117
3	0	3328.5	-1.61068
3	0	3341.5	-1.60589
3	0	3354.5	-1.59645
3	0	3367.5	-1.58652
3	0	3380.5	-1.59067
3	0	3393.5	-1.58355
3	0	3406.5	-1.6107
3	0	3419.5	-1.61706
3	0	3432.5	-1.61437
3	0	3445.5	-1.61308
3	0	3458.5	-1.60653
3	0	3471.5	-1.59311
3	0	3484.5	-1.58683
3	0	3497.5	-1.58083
3	0	3510.5	-1.58758
3	0	3523.5	-1.59001
3	0	3536.5	-1.59387
3	0	3549.5	-1.60422
3	0	3562.5	-1.59884
3	0	3575.5	-1.60804
3	0	3588.5	-1.59535
3	0	3601.5	-1.59778
3	0	3614.5	-1.59217
3	0	3627.5	-1.59142
3	0	3640.5	-1.59438
3	0	3653.5	-1.58692
3	0	3666.5	-1.58451
3	0	3679.5	-1.60619
3	0	3692.5	-1.5995
3	0	3705.5	-1.60301
3	0	3718.5	-1.58919
3	0	3731.5	-1.01071
3	0	3744.5	-0.992725
3	0	3757.5	-0.985451
3	0	3770.5	-0.982152
3	0	3783.5	-0.980084
3	0	3796.5	-0.97849
3	0	3809.5	-0.976731
3	0	3821.34	-0.975642