File: TS-82-25-08-120-200_2024-08-22_C01.txt
mode	error	time/s	<Ewe/V>
3	1	0.5	-0.436846
3	0	25	-0.441341
3	0	49.5	-0.444943
3	0	74	-0.447682
3	0	98.5	-0.450165
3	0	123	-0.451171
3	0	147.5	-0.453023
3	0	172	-0.453975
3	0	196.5	-0.4543
3	0	221	-0.455417
3	0	245.5	-0.455862
3	0	270	-0.456791
3	0	294.5	-0.456929
3	0	319	-0.456798
3	0	343.5	-0.456704
3	0	368	-0.457163
3	0	392.5	-0.457403
3	0	417	-0.457651
3	0	441.5	-0.458054
3	0	466	-0.458296
3	0	490.5	-0.458475
3	0	515	-0.459234
3	0	539.5	-0.459714
3	0	564	-0.46042
3	0	588.5	-0.460937
3	0	613	-0.461444
3	0	637.5	-0.461983
3	0	662	-0.462625
3	0	686.5	-0.463205
3	0	711	-0.464036
3	0	735.5	-0.484257
3	0	760	-0.46493
3	0	784.5	-1.47597
3	0	809	-1.549
3	0	833.5	-1.56626
3	0	858	-1.50775
3	0	882.5	-1.49764
3	0	907	-1.45646
3	0	931.5	-1.43667
3	0	956	-1.4373
3	0	980.5	-1.38341
3	0	1005	-1.40602
3	0	1029.5	-1.43414
3	0	1054	-1.44859
3	0	1078.5	-1.41472
3	0	1103	-1.41074
3	0	1127.5	-1.40045
3	0	1152	-1.39276
3	0	1176.5	-1.40731
3	0	1201	-1.40896
3	0	1225.5	-1.41121
3	0	1250	-1.38517
3	0	1274.5	-1.38226
3	0	1299	-1.40309
3	0	1323.5	-1.40203
3	0	1348	-1.38735
3	0	1372.5	-1.37841
3	0	1397	-1.36408
3	0	1421.5	-1.37778
3	0	1446	-1.36623
3	0	1470.5	-1.36246
3	0	1495	-1.35929
3	0	1519.5	-1.35616
3	0	1544	-1.35457
3	0	1568.5	-1.377
3	0	1593	-1.35765
3	0	1617.5	-1.36287
3	0	1642	-1.34636
3	0	1666.5	-1.36637
3	0	1691	-1.37959
3	0	1715.5	-1.35321
3	0	1740	-1.34465
3	0	1764.5	-1.3586
3	0	1789	-1.36412
3	0	1813.5	-1.37078
3	0	1838	-1.35493
3	0	1862.5	-1.34515
3	0	1887	-1.34233
3	0	1911.5	-1.37466
3	0	1936	-1.36141
3	0	1960.5	-1.33806
3	0	1985	-1.34523
3	0	2009.5	-1.3553
3	0	2034	-1.3633
3	0	2058.5	-1.36034
3	0	2083	-1.35693
3	0	2107.5	-1.34419
3	0	2132	-1.33482
3	0	2156.5	-1.35748
3	0	2181	-1.36294
3	0	2205.5	-1.34772
3	0	2230	-1.34673
3	0	2254.5	-1.3413
3	0	2279	-1.3581
3	0	2303.5	-1.35373
3	0	2328	-1.35451
3	0	2352.5	-1.34117
3	0	2377	-1.34727
3	0	2401.5	-1.35347
3	0	2426	-1.3638
3	0	2450.5	-1.34941
3	0	2475	-1.34414
3	0	2499.5	-1.34712
3	0	2524	-1.36601
3	0	2548.5	-1.36066
3	0	2573	-1.35116
3	0	2597.5	-1.34749
3	0	2622	-1.3503
3	0	2646.5	-1.35652
3	0	2671	-1.36375
3	0	2695.5	-1.35772
3	0	2720	-1.35071
3	0	2744.5	-1.34683
3	0	2769	-1.3618
3	0	2793.5	-1.35773
3	0	2818	-1.3466
3	0	2842.5	-1.34625
3	0	2867	-1.35797
3	0	2891.5	-1.35384
3	0	2916	-1.35948
3	0	2940.5	-1.34755
3	0	2965	-1.344
3	0	2989.5	-1.35614
3	0	3014	-1.35964
3	0	3038.5	-1.35846
3	0	3063	-1.35468
3	0	3087.5	-1.34597
3	0	3112	-1.35015
3	0	3136.5	-1.36054
3	0	3161	-1.3502
3	0	3185.5	-1.3533
3	0	3210	-1.34172
3	0	3234.5	-1.35389
3	0	3259	-1.36232
3	0	3283.5	-1.36427
3	0	3308	-1.34696
3	0	3332.5	-1.35108
3	0	3357	-1.35202
3	0	3381.5	-1.35437
3	0	3406	-1.35112
3	0	3430.5	-1.32635
3	0	3455	-1.3347
3	0	3479.5	-1.33464
3	0	3504	-1.35242
3	0	3528.5	-1.3362
3	0	3553	-1.33521
3	0	3577.5	-1.34592
3	0	3602	-1.34695
3	0	3626.5	-1.34605
3	0	3651	-1.33909
3	0	3675.5	-1.33681
3	0	3700	-1.34797
3	0	3724.5	-1.36175
3	0	3749	-1.36201
3	0	3773.5	-1.32758
3	0	3798	-1.33503
3	0	3822.5	-1.34776
3	0	3847	-1.35483
3	0	3871.5	-1.34903
3	0	3896	-1.33857
3	0	3920.5	-1.33987
3	0	3945	-1.34198
3	0	3969.5	-1.3403
3	0	3994	-1.34563
3	0	4018.5	-1.34197
3	0	4043	-1.3252
3	0	4067.5	-1.35724
3	0	4092	-1.35406
3	0	4116.5	-1.33654
3	0	4141	-1.33868
3	0	4165.5	-1.3393
3	0	4190	-1.34641
3	0	4214.5	-1.33741
3	0	4239	-1.34322
3	0	4263.5	-1.30394
3	0	4288	-1.33753
3	0	4312.5	-1.34836
3	0	4337	-1.3441
3	0	4361.5	-1.34701
3	0	4386	-1.3392
3	0	4410.5	-1.34322
3	0	4435	-1.34295
3	0	4459.5	-1.3523
3	0	4484	-1.34939
3	0	4508.5	-1.33852
3	0	4533	-1.3411
3	0	4557.5	-1.35602
3	0	4582	-1.3629
3	0	4606.5	-1.34153
3	0	4631	-1.34749
3	0	4655.5	-1.33654
3	0	4680	-1.35806
3	0	4704.5	-1.36633
3	0	4729	-1.35813
3	0	4753.5	-1.33702
3	0	4778	-1.34784
3	0	4802.5	-1.34122
3	0	4827	-1.34769
3	0	4851.5	-1.33889
3	0	4876	-1.33427
3	0	4900.5	-1.33879
3	0	4925	-1.34423
3	0	4949.5	-1.34357
3	0	4974	-1.3297
3	0	4998.5	-1.33707
3	0	5023	-1.35506
3	0	5047.5	-1.36224
3	0	5072	-1.33274
3	0	5096.5	-1.32837
3	0	5121	-1.31664
3	0	5145.5	-1.3281
3	0	5170	-1.33363
3	0	5194.5	-1.33841
3	0	5219	-1.31534
3	0	5243.5	-1.32687
3	0	5268	-1.33983
3	0	5292.5	-1.34278
3	0	5317	-1.33389
3	0	5341.5	-1.33326
3	0	5366	-1.33348
3	0	5390.5	-1.33908
3	0	5415	-1.35404
3	0	5439.5	-1.33238
3	0	5464	-1.32727
3	0	5488.5	-1.33453
3	0	5513	-1.33835
3	0	5537.5	-1.34322
3	0	5562	-1.33627
3	0	5586.5	-1.33476
3	0	5611	-1.32641
3	0	5635.5	-1.34044
3	0	5660	-1.34714
3	0	5684.5	-1.33015
3	0	5709	-1.324
3	0	5733.5	-1.32301
3	0	5758	-1.3561
3	0	5782.5	-1.34513
3	0	5807	-1.32899
3	0	5831.5	-1.33151
3	0	5856	-1.33245
3	0	5880.5	-1.33156
3	0	5905	-1.357
3	0	5929.5	-1.33301
3	0	5954	-1.32929
3	0	5978.5	-1.33646
3	0	6003	-1.35334
3	0	6027.5	-1.33717
3	0	6052	-1.34772
3	0	6076.5	-1.32656
3	0	6101	-1.33761
3	0	6125.5	-1.33882
3	0	6150	-1.33288
3	0	6174.5	-1.33268
3	0	6199	-1.334
3	0	6223.5	-1.32199
3	0	6248	-1.36509
3	0	6272.5	-1.33801
3	0	6297	-1.32947
3	0	6321.5	-1.33061
3	0	6346	-1.34976
3	0	6370.5	-1.33815
3	0	6395	-1.33892
3	0	6419.5	-1.32751
3	0	6444	-1.3263
3	0	6468.5	-1.33959
3	0	6493	-1.344
3	0	6517.5	-1.32572
3	0	6542	-1.33612
3	0	6566.5	-1.33121
3	0	6591	-1.33104
3	0	6615.5	-1.32953
3	0	6640	-1.33226
3	0	6664.5	-1.34709
3	0	6689	-1.33764
3	0	6713.5	-1.35492
3	0	6738	-1.35599
3	0	6762.5	-1.32629
3	0	6787	-1.33124
3	0	6811.5	-1.32278
3	0	6836	-1.33999
3	0	6860.5	-1.33179
3	0	6885	-1.33191
3	0	6909.5	-1.31629
3	0	6934	-1.33646
3	0	6958.5	-1.33666
3	0	6983	-1.3543
3	0	7007.5	-1.34842
3	0	7032	-1.32801
3	0	7056.5	-1.33901
3	0	7081	-1.3397
3	0	7105.5	-1.34381
3	0	7130	-1.32706
3	0	7154.5	-1.32887
3	0	7179	-1.33576
3	0	7203.5	-1.34042
3	0	7228	-1.34143
3	0	7230	-1.34321