File: TS-82-25-02-120-100_2024-07-29_hematite_slurry_05_LSV_C01.txt
mode	ox/red	error	control changes	time/s	control/V	Ewe/V	<I>/mA	(Q-Qo)/C	I Range	<Ece>/V	P/W	Ewe-Ece/V
2	0	0	1	7299.24	-1.19291	-1.1932	-200.729	-0.00714344	37	0.644887	0.239509	-1.83808
2	0	0	1	7299.42	-1.19108	-1.1921	-198.227	-0.0435258	37	0.643788	0.236307	-1.83589
2	0	0	1	7299.76	-1.18774	-1.18879	-193.876	-0.108802	37	0.642297	0.230478	-1.83109
2	0	0	1	7300.09	-1.18441	-1.18454	-189.321	-0.172599	37	0.640601	0.224259	-1.82514
2	0	0	1	7300.42	-1.18108	-1.18131	-184.729	-0.234847	37	0.638764	0.218222	-1.82007
2	0	0	1	7300.76	-1.17775	-1.17844	-180.051	-0.295548	37	0.636913	0.212178	-1.81535
2	0	0	1	7301.09	-1.17441	-1.17419	-175.439	-0.354719	37	0.635179	0.205999	-1.80937
2	0	0	1	7301.42	-1.17108	-1.17139	-170.9	-0.412366	37	0.633217	0.200191	-1.80461
2	0	0	1	7301.76	-1.16774	-1.16707	-166.429	-0.468513	37	0.63171	0.194234	-1.79877
2	0	0	1	7302.09	-1.16441	-1.16552	-162.035	-0.523183	37	0.630039	0.188855	-1.79556
2	0	0	1	7302.42	-1.16108	-1.16085	-157.716	-0.576405	37	0.628219	0.183084	-1.78907
2	0	0	1	7302.76	-1.15774	-1.1576	-153.369	-0.628158	37	0.626178	0.177539	-1.78378
2	0	0	1	7303.09	-1.15441	-1.1551	-149.639	-0.678575	37	0.62479	0.172848	-1.77989
2	0	0	1	7303.42	-1.15108	-1.15093	-145.112	-0.727625	37	0.622533	0.167014	-1.77346
2	0	0	1	7303.76	-1.14774	-1.14857	-140.634	-0.775171	37	0.620714	0.161528	-1.76929
2	0	0	1	7304.09	-1.14441	-1.14366	-136.273	-0.821246	37	0.619012	0.15585	-1.76268
2	0	0	1	7304.42	-1.14107	-1.14279	-131.927	-0.865869	37	0.617379	0.150764	-1.76017
2	0	0	1	7304.76	-1.13774	-1.13948	-127.619	-0.909051	37	0.615229	0.145419	-1.75471
2	0	0	1	7305.09	-1.13441	-1.13469	-123.306	-0.950793	37	0.613476	0.139914	-1.74816
2	0	0	1	7305.42	-1.13107	-1.1327	-119.026	-0.991093	37	0.611426	0.134821	-1.74413
2	0	0	1	7305.76	-1.12774	-1.12835	-114.791	-1.02997	37	0.609794	0.129524	-1.73814
2	0	0	1	7306.09	-1.12441	-1.12433	-110.567	-1.06746	37	0.607738	0.124314	-1.73207
2	0	0	1	7306.42	-1.12107	-1.12223	-106.395	-1.10354	37	0.605872	0.1194	-1.7281
2	0	0	1	7306.76	-1.11774	-1.11818	-102.315	-1.13825	37	0.603773	0.114407	-1.72195
2	0	0	1	7307.09	-1.1144	-1.1152	-98.1553	-1.17159	37	0.601929	0.109462	-1.71712
2	0	0	1	7307.42	-1.11107	-1.11097	-94.1684	-1.20356	37	0.599946	0.104618	-1.71091
2	0	0	1	7307.76	-1.10774	-1.10905	-90.2553	-1.23421	37	0.59814	0.100097	-1.70718
2	0	0	1	7308.09	-1.1044	-1.1043	-86.2055	-1.26354	37	0.596113	0.0951967	-1.70041
2	0	0	1	7308.42	-1.10107	-1.10149	-82.235	-1.29153	37	0.593967	0.0905811	-1.69546
2	0	0	1	7308.76	-1.09774	-1.09993	-78.2741	-1.31821	37	0.591604	0.086096	-1.69153
2	0	0	1	7309.09	-1.0944	-1.09377	-74.2657	-1.34355	37	0.589559	0.0812293	-1.68332
2	0	0	1	7309.42	-1.09107	-1.09223	-70.3384	-1.36758	37	0.587161	0.0768256	-1.67939
2	0	0	1	7309.76	-1.08773	-1.08768	-66.4853	-1.39031	37	0.585254	0.0723145	-1.67293
2	0	0	1	7310.09	-1.0844	-1.08453	-62.574	-1.41173	37	0.582561	0.0678633	-1.66709
2	0	0	1	7310.42	-1.08107	-1.08168	-58.7355	-1.43187	37	0.580137	0.0635329	-1.66182
2	0	0	1	7310.76	-1.07773	-1.0778	-55.0258	-1.45075	37	0.577968	0.0593066	-1.65576
2	0	0	1	7311.09	-1.0744	-1.07535	-51.3426	-1.4684	37	0.575465	0.0552113	-1.65082
2	0	0	1	7311.42	-1.07107	-1.07159	-47.7644	-1.48485	37	0.573009	0.0511837	-1.6446
2	0	0	1	7311.77	-1.06756	-1.0683	-44.1488	-1.50084	37	0.570481	0.047164	-1.63878
2	0	0	1	7312.12	-1.06406	-1.06416	-40.7125	-1.51564	38	0.567961	0.0433247	-1.63212
2	0	0	1	7312.46	-1.06073	-1.06138	-37.5054	-1.5286	38	0.565502	0.0398074	-1.62688
2	0	0	1	7312.79	-1.0574	-1.05808	-34.3443	-1.54051	38	0.562944	0.036339	-1.62102
2	0	0	1	7313.12	-1.05406	-1.05431	-31.2417	-1.55137	38	0.56023	0.0329385	-1.61454
2	0	0	1	7313.46	-1.05073	-1.05123	-28.1304	-1.5612	38	0.557287	0.0295717	-1.60852
2	0	0	1	7313.79	-1.0474	-1.04751	-25.0482	-1.56999	38	0.554154	0.0262384	-1.60167
2	0	0	1	7314.12	-1.04406	-1.04404	-22.0617	-1.57777	38	0.550864	0.0230333	-1.59491
2	0	0	1	7314.46	-1.04073	-1.0411	-19.1312	-1.58457	38	0.547383	0.0199176	-1.58849
2	0	0	1	7314.79	-1.0374	-1.03776	-16.3965	-1.59042	38	0.543788	0.0170157	-1.58155
2	0	0	1	7315.12	-1.03406	-1.03411	-13.888	-1.5954	38	0.540131	0.0143617	-1.57424
2	0	0	1	7315.46	-1.03073	-1.03104	-11.6285	-1.59959	38	0.536347	0.0119894	-1.56739
2	0	0	1	7315.79	-1.02739	-1.02727	-9.56978	-1.60306	38	0.53239	0.00983076	-1.55966
2	0	0	1	7316.13	-1.02406	-1.02443	-7.68296	-1.60588	38	0.528176	0.00787066	-1.55261
2	0	0	1	7316.46	-1.02073	-1.02064	-5.86287	-1.60808	38	0.523361	0.00598387	-1.544
2	0	0	1	7316.81	-1.01723	-1.01665	-4.00387	-1.60973	38	0.516996	0.00407056	-1.53365
2	0	0	1	7317.16	-1.01372	-1.01417	-2.18117	-1.61077	39	0.509208	0.00221207	-1.52338
2	0	0	1	7317.49	-1.01039	-1.01176	-0.42705	-1.61115	39	0.498105	0.000432073	-1.50987
2	1	0	1	7317.83	-1.00706	-1.00747	1.34	-1.61094	39	0.482235	-0.00135001	-1.48971
2	1	0	1	7318.16	-1.00372	-1.00426	3.12169	-1.61014	39	0.460718	-0.00313498	-1.46498
2	1	0	1	7318.49	-1.00039	-1.00157	4.94921	-1.60874	39	0.43382	-0.00495696	-1.43539
2	1	0	1	7318.83	-0.997056	-0.998444	6.83258	-1.60672	39	0.403012	-0.00682195	-1.40146
2	1	0	1	7319.16	-0.993723	-0.994021	8.72213	-1.60407	39	0.377412	-0.00866998	-1.37143
2	1	0	1	7319.51	-0.990222	-0.988949	10.6136	-1.60061	39	0.35836	-0.0104963	-1.34731
2	1	0	1	7319.86	-0.986721	-0.9868	12.4044	-1.59654	38	0.34293	-0.0122407	-1.32973
2	1	0	1	7320.19	-0.983388	-0.98193	14.1734	-1.59205	38	0.331131	-0.0139173	-1.31306
2	1	0	1	7320.53	-0.980055	-0.979722	16.0091	-1.58697	38	0.320243	-0.0156845	-1.29997
2	1	0	1	7320.86	-0.976721	-0.978059	17.7687	-1.58128	38	0.307691	-0.0173789	-1.28575
2	1	0	1	7321.19	-0.973387	-0.972495	19.45	-1.57502	38	0.291594	-0.018915	-1.26409
2	1	0	1	7321.53	-0.970053	-0.970685	21.4062	-1.56816	38	0.268944	-0.0207787	-1.23963
2	1	0	1	7321.86	-0.966719	-0.965108	23.451	-1.56062	38	0.234286	-0.0226327	-1.19939
2	1	0	1	7322.19	-0.963385	-0.9627	24.893	-1.5525	38	0.10303	-0.0239645	-1.06573
2	1	0	1	7322.53	-0.960051	-0.960752	25.3794	-1.54407	38	-0.515787	-0.0243833	-0.444965
2	1	0	1	7322.86	-0.956718	-0.953942	26.8426	-1.53533	38	-0.91138	-0.0256063	-0.0425627
2	1	0	1	7323.19	-0.953385	-0.956234	28.3819	-1.52607	38	-1.02552	-0.0271397	0.0692872
2	1	0	1	7323.44	-0.950884	-0.954808	29.5075	-1.51883	38	-1.11571	-0.028174	0.160902
2	1	0	1	7323.51	-0.949884	-0.955244	30.0673	-1.5167	38	-1.1377	-0.0287216	0.18246